 Field[T] Tsmpl[K] Tcntr[K] Signal Mirror[MM] RefSignal
 0.00000    4.90     2.96   1.24010  2.7984   7.50390
 0.05000    4.88     2.97   1.23991  2.7982   7.49753
 0.10000    4.87     2.96   1.24006  2.7985   7.49983
 0.15000    4.85     2.97   1.24015  2.7985   7.49928
 0.20000    4.84     2.96   1.24048  2.7983   7.49984
 0.25000    4.83     2.96   1.24014  2.7984   7.49612
 0.30000    4.82     2.97   1.24012  2.7986   7.49944
 0.35000    4.80     2.95   1.24037  2.7988   7.49906
 0.40000    4.77     2.95   1.24011  2.7987   7.49864
 0.45000    4.75     2.96   1.23954  2.7987   7.49908
 0.50000    4.73     2.95   1.23965  2.7986   7.50087
 0.55000    4.72     2.97   1.23949  2.7986   7.49981
 0.60000    4.70     2.97   1.23914  2.7990   7.49783
 0.65000    4.68     2.96   1.23871  2.7990   7.50056
 0.70000    4.67     2.97   1.23856  2.7991   7.50209
 0.75000    4.66     2.98   1.23817  2.7991   7.49944
 0.80000    4.65     2.96   1.23764  2.7989   7.50084
 0.85000    4.64     2.97   1.23765  2.7989   7.49796
 0.90000    4.63     2.96   1.23710  2.7989   7.50389
 0.95000    4.61     2.95   1.23683  2.7990   7.50511
 1.00000    4.60     2.97   1.23697  2.7991   7.50610
 1.05000    4.60     2.96   1.23589  2.7991   7.50335
 1.10000    4.59     2.95   1.23564  2.7991   7.50838
 1.15000    4.59     2.96   1.23486  2.7990   7.50827
 1.20000    4.58     2.94   1.23322  2.7989   7.50961
 1.25000    4.57     2.95   1.23262  2.7988   7.51231
 1.30000    4.57     2.96   1.23124  2.7987   7.51194
 1.35000    4.57     2.96   1.23138  2.7982   7.51271
 1.40000    4.57     2.96   1.23148  2.7982   7.51776
 1.45000    4.58     2.96   1.23230  2.7978   7.51815
 1.50000    4.59     2.97   1.23363  2.7979   7.52105
 1.55000    4.60     2.97   1.23435  2.7977   7.51940
 1.60000    4.62     2.97   1.23558  2.7978   7.51733
 1.65000    4.63     2.96   1.23602  2.7979   7.52051
 1.70000    4.63     2.96   1.23662  2.7977   7.51762
 1.75000    4.64     2.96   1.23720  2.7976   7.51926
 1.80000    4.65     2.98   1.23779  2.7979   7.51796
 1.85000    4.66     2.97   1.23869  2.7979   7.51808
 1.90000    4.68     2.97   1.23840  2.7981   7.52294
 1.95000    4.69     2.98   1.23952  2.7976   7.52391
 2.00000    4.70     2.99   1.24047  2.7977   7.52526
 2.05000    4.72     2.98   1.24091  2.7976   7.52626
 2.10000    4.74     2.98   1.24081  2.7976   7.52259
 2.15000    4.76     2.98   1.24113  2.7979   7.52921
 2.20000    4.76     2.99   1.24178  2.7977   7.53109
 2.25000    4.78     2.99   1.24154  2.7980   7.52835
 2.30000    4.78     3.00   1.24224  2.7978   7.53336
 2.35000    4.80     2.99   1.24280  2.7980   7.52898
 2.40000    4.80     3.00   1.24360  2.7976   7.53092
 2.45000    4.81     3.00   1.24404  2.7977   7.53686
 2.50000    4.82     2.99   1.24419  2.7977   7.53805
 2.55000    4.82     3.01   1.24429  2.7981   7.53679
 2.60000    4.82     3.00   1.24524  2.7980   7.53773
 2.65000    4.82     2.99   1.24557  2.7977   7.54356
 2.70000    4.82     3.00   1.24588  2.7977   7.54345
 2.75000    4.82     3.00   1.24644  2.7978   7.54509
 2.80000    4.82     3.00   1.24688  2.7978   7.54564
 2.85000    4.82     3.00   1.24742  2.7980   7.54447
 2.90000    4.82     3.00   1.24778  2.7978   7.54304
 2.95000    4.81     3.00   1.24792  2.7981   7.54721
 3.00000    4.81     2.99   1.24825  2.7981   7.54625
 3.05000    4.81     3.00   1.24826  2.7981   7.53952
 3.10000    4.80     3.00   1.24889  2.7981   7.54954
 3.15000    4.81     3.01   1.24913  2.7980   7.54972
 3.20000    4.82     3.02   1.24961  2.7982   7.54981
 3.25000    4.82     3.01   1.24967  2.7983   7.55101
 3.30000    4.83     3.01   1.25046  2.7982   7.55477
 3.35000    4.84     3.01   1.25056  2.7981   7.55222
 3.40000    4.85     3.01   1.25081  2.7983   7.55862
 3.45000    4.86     3.02   1.25111  2.7983   7.57234
 3.50000    4.88     3.01   1.25189  2.7982   7.56477
 3.55000    4.88     3.02   1.25251  2.7982   7.56030
 3.60000    4.89     3.02   1.25206  2.7985   7.56201
 3.65000    4.91     3.02   1.25260  2.7983   7.56579
 3.70000    4.91     3.02   1.25271  2.7983   7.56188
 3.75000    4.92     3.02   1.25337  2.7981   7.56500
 3.80000    4.92     3.03   1.25338  2.7980   7.56509
 3.85000    4.92     3.02   1.25360  2.7983   7.56087
 3.90000    4.92     3.02   1.25396  2.7982   7.56080
 3.95000    4.92     3.02   1.25444  2.7986   7.56764
 4.00000    4.93     3.02   1.25495  2.7987   7.56599
