 Field[T] Tsmpl[K] Tcntr[K] Signal Mirror[MM] RefSignal
 4.00000    4.97     3.02   1.04087  2.8211   5.37804
 3.95000    4.97     3.04   1.03877  2.8213   5.37325
 3.90000    4.97     3.04   1.03733  2.8211   5.36895
 3.85000    4.99     3.04   1.03593  2.8211   5.36594
 3.80000    4.99     3.04   1.03407  2.8212   5.36053
 3.75000    5.00     3.04   1.03277  2.8211   5.35894
 3.70000    5.01     3.03   1.03156  2.8211   5.35499
 3.65000    5.01     3.04   1.03028  2.8211   5.34986
 3.60000    5.02     3.04   1.02910  2.8212   5.34867
 3.55000    5.03     3.02   1.02782  2.8211   5.34409
 3.50000    5.03     3.03   1.02624  2.8209   5.34287
 3.45000    5.04     3.03   1.02557  2.8208   5.33675
 3.40000    5.04     3.04   1.02410  2.8208   5.33375
 3.35000    5.05     3.05   1.02324  2.8207   5.33253
 3.30000    5.06     3.02   1.02185  2.8205   5.32887
 3.25000    5.07     3.02   1.02134  2.8206   5.32833
 3.20000    5.07     3.03   1.02037  2.8206   5.32705
 3.15000    5.07     3.02   1.01915  2.8206   5.32374
 3.10000    5.08     3.02   1.01854  2.8206   5.32017
 3.05000    5.09     3.02   1.01728  2.8206   5.32004
 3.00000    5.09     3.02   1.01612  2.8206   5.31994
 2.95000    5.09     3.02   1.01540  2.8204   5.31427
 2.90000    5.10     3.01   1.01484  2.8203   5.31572
 2.85000    5.10     3.02   1.01396  2.8204   5.31238
 2.80000    5.11     3.03   1.01297  2.8205   5.30876
 2.75000    5.11     3.03   1.01236  2.8204   5.30869
 2.70000    5.12     3.02   1.01199  2.8204   5.30787
 2.65000    5.13     3.01   1.01044  2.8205   5.30698
 2.60000    5.13     3.03   1.01038  2.8204   5.30360
 2.55000    5.14     3.03   1.00919  2.8204   5.30122
 2.50000    5.14     3.03   1.00861  2.8205   5.30211
 2.45000    5.15     3.02   1.00810  2.8204   5.30061
 2.40000    5.16     3.01   1.00654  2.8203   5.29888
 2.35000    5.16     3.02   1.00673  2.8204   5.30081
 2.30000    5.16     3.01   1.00573  2.8204   5.29768
 2.25000    5.16     3.01   1.00503  2.8205   5.29612
 2.20000    5.17     3.03   1.00412  2.8204   5.29391
 2.15000    5.17     3.01   1.00364  2.8201   5.29333
 2.10000    5.17     3.01   1.00264  2.8204   5.28935
 2.05000    5.18     3.00   1.00194  2.8204   5.29178
 2.00000    5.18     3.00   1.00148  2.8205   5.29153
 1.95000    5.18     3.00   1.00047  2.8202   5.29012
 1.90000    5.19     3.01   1.00007  2.8200   5.29141
 1.85000    5.20     3.00   0.99937  2.8201   5.28444
 1.80000    5.21     3.01   0.99847  2.8203   5.28554
 1.75000    5.22     3.00   0.99788  2.8203   5.28436
 1.70000    5.23     3.01   0.99646  2.8203   5.28393
 1.65000    5.23     3.01   0.99519  2.8204   5.28075
 1.60000    5.24     3.00   0.99427  2.8204   5.28177
 1.55000    5.24     3.03   0.99327  2.8205   5.28033
 1.50000    5.27     3.01   0.99293  2.8208   5.28336
 1.45000    5.28     2.99   0.99270  2.8208   5.27939
 1.40000    5.28     3.01   0.99311  2.8207   5.27973
 1.35000    5.28     3.00   0.99372  2.8210   5.27813
 1.30000    5.28     2.99   0.99457  2.8209   5.27871
 1.25000    5.28     3.00   0.99527  2.8209   5.27940
 1.20000    5.29     3.00   0.99575  2.8208   5.27551
 1.15000    5.28     3.00   0.99590  2.8208   5.27600
 1.10000    5.28     3.00   0.99535  2.8206   5.27688
 1.05000    5.28     3.00   0.99557  2.8207   5.27445
 1.00000    5.28     3.00   0.99571  2.8208   5.27397
 0.95000    5.27     2.99   0.99555  2.8208   5.27555
 0.90000    5.26     3.01   0.99580  2.8208   5.27098
 0.85000    5.25     3.01   0.99549  2.8211   5.27659
 0.80000    5.24     3.00   0.99537  2.8209   5.27108
 0.75000    5.22     3.00   0.99595  2.8208   5.27516
 0.70000    5.20     2.99   0.99606  2.8207   5.27594
 0.65000    5.19     3.01   0.99593  2.8206   5.27328
 0.60000    5.17     3.00   0.99524  2.8206   5.27333
 0.55000    5.15     2.99   0.99546  2.8202   5.27524
 0.50000    5.14     3.00   0.99510  2.8202   5.27335
 0.45000    5.13     2.98   0.99459  2.8205   5.27361
 0.40000    5.13     2.98   0.99406  2.8204   5.27211
 0.35000    5.12     2.99   0.99440  2.8204   5.27190
 0.30000    5.11     2.99   0.99410  2.8204   5.27077
 0.25000    5.11     2.99   0.99348  2.8203   5.26963
 0.20000    5.10     2.99   0.99366  2.8200   5.26308
 0.15000    5.10     2.99   0.99313  2.8199   5.26453
 0.10000    5.09     3.00   0.99256  2.8198   5.26563
 0.05000    5.08     3.00   0.99221  2.8203   5.26252
-0.00000    5.08     2.99   0.99208  2.8202   5.26380
