 Field[T] Tsmpl[K] Tcntr[K] Signal   Mirror[MM]
 0.00000    1.83     1.83   0.79778  -9.6283
 0.05000    1.83     1.83   0.79442  -9.6263
 0.10000    1.83     1.83   0.79874  -9.6281
 0.15000    1.83     1.83   0.79507  -9.6277
 0.20000    1.83     1.83   0.79619  -9.6288
 0.25000    1.83     1.83   0.79258  -9.6283
 0.30000    1.83     1.83   0.78578  -9.6285
 0.35000    1.83     1.83   0.77712  -9.6291
 0.40000    1.83     1.83   0.77048  -9.6310
 0.45000    1.83     1.83   0.76741  -9.6331
 0.50000    1.83     1.83   0.77186  -9.6338
 0.55000    1.83     1.83   0.77707  -9.6361
 0.60000    1.83     1.83   0.78382  -9.6370
 0.65000    1.83     1.83   0.79046  -9.6372
 0.70000    1.83     1.83   0.80048  -9.6388
 0.75000    1.83     1.83   0.80715  -9.6393
 0.80000    1.83     1.83   0.81360  -9.6389
 0.85000    1.83     1.83   0.82166  -9.6394
 0.90000    1.83     1.83   0.82630  -9.6396
 0.95000    1.83     1.83   0.82742  -9.6380
 1.00000    1.83     1.83   0.83749  -9.6387
 1.05000    1.83     1.83   0.84054  -9.6384
 1.10000    1.83     1.83   0.84325  -9.6378
 1.15000    1.83     1.83   0.84683  -9.6369
 1.20000    1.83     1.83   0.85083  -9.6369
 1.25000    1.83     1.83   0.85070  -9.6359
 1.30000    1.83     1.83   0.85382  -9.6351
 1.35000    1.83     1.83   0.85538  -9.6340
 1.40000    1.83     1.83   0.85270  -9.6334
 1.45000    1.83     1.83   0.85118  -9.6326
 1.50000    1.83     1.83   0.85024  -9.6318
 1.55000    1.83     1.83   0.85469  -9.6329
 1.60000    1.83     1.83   0.85579  -9.6330
 1.65000    1.83     1.83   0.85280  -9.6328
 1.70000    1.83     1.83   0.85240  -9.6322
 1.75000    1.83     1.83   0.84918  -9.6318
 1.80000    1.83     1.83   0.85240  -9.6319
 1.85000    1.83     1.83   0.85493  -9.6319
 1.90000    1.83     1.83   0.85418  -9.6313
 1.95000    1.83     1.83   0.85382  -9.6309
 2.00000    1.83     1.83   0.84938  -9.6290
 2.05000    1.83     1.83   0.85253  -9.6304
 2.10000    1.83     1.83   0.85437  -9.6307
 2.15000    1.83     1.83   0.85274  -9.6299
 2.20000    1.83     1.83   0.85042  -9.6296
 2.25000    1.83     1.83   0.85267  -9.6297
 2.30000    1.83     1.83   0.84995  -9.6293
 2.35000    1.83     1.83   0.85309  -9.6300
 2.40000    1.83     1.83   0.85211  -9.6302
 2.45000    1.83     1.83   0.85253  -9.6299
 2.50000    1.83     1.83   0.84400  -9.6273
 2.55000    1.83     1.83   0.84194  -9.6262
 2.60000    1.83     1.83   0.85118  -9.6284
 2.65000    1.83     1.83   0.84982  -9.6289
 2.70000    1.83     1.83   0.84854  -9.6287
 2.75000    1.83     1.83   0.84822  -9.6284
 2.80000    1.83     1.83   0.85112  -9.6293
 2.85000    1.83     1.83   0.84586  -9.6288
 2.90000    1.83     1.83   0.85109  -9.6291
 2.95000    1.83     1.83   0.84928  -9.6288
 3.00000    1.83     1.83   0.84122  -9.6267
 3.05000    1.83     1.83   0.84760  -9.6285
 3.10000    1.83     1.83   0.84789  -9.6288
 3.15000    1.83     1.83   0.84586  -9.6275
 3.20000    1.83     1.83   0.84525  -9.6275
 3.25000    1.83     1.83   0.84490  -9.6275
 3.30000    1.83     1.83   0.84606  -9.6277
 3.35000    1.83     1.83   0.84480  -9.6277
 3.40000    1.83     1.83   0.84638  -9.6278
 3.45000    1.83     1.83   0.84651  -9.6275
 3.50000    1.83     1.83   0.84509  -9.6267
 3.55000    1.83     1.83   0.84035  -9.6268
 3.60000    1.83     1.83   0.84378  -9.6277
 3.65000    1.83     1.83   0.84312  -9.6278
 3.70000    1.83     1.83   0.83635  -9.6244
 3.75000    1.83     1.83   0.84306  -9.6264
 3.80000    1.83     1.83   0.83922  -9.6266
 3.85000    1.83     1.83   0.83958  -9.6265
 3.90000    1.83     1.83   0.84128  -9.6271
 3.95000    1.83     1.83   0.83883  -9.6271
 4.00000    1.83     1.83   0.84064  -9.6273
 4.05000    1.83     1.83   0.83842  -9.6271
 4.10000    1.83     1.83   0.83902  -9.6268
 4.15000    1.83     1.83   0.83696  -9.6273
 4.20000    1.83     1.83   0.83723  -9.6272
 4.25000    1.83     1.83   0.83546  -9.6256
 4.30000    1.83     1.83   0.83470  -9.6252
 4.35000    1.83     1.83   0.83626  -9.6261
 4.40000    1.83     1.83   0.83565  -9.6270
 4.45000    1.83     1.83   0.83587  -9.6267
 4.50000    1.83     1.83   0.83578  -9.6259
 4.55000    1.83     1.83   0.83514  -9.6263
 4.60000    1.83     1.83   0.83258  -9.6262
 4.65000    1.83     1.83   0.83056  -9.6254
 4.70000    1.83     1.83   0.83136  -9.6264
 4.75000    1.83     1.83   0.83242  -9.6265
 4.80000    1.83     1.83   0.83480  -9.6266
 4.85000    1.83     1.83   0.83555  -9.6266
 4.90000    1.83     1.83   0.83422  -9.6261
 4.95000    1.83     1.83   0.83200  -9.6261
 5.00000    1.83     1.83   0.83342  -9.6265
 5.05000    1.83     1.83   0.83232  -9.6264
 5.10000    1.83     1.83   0.83222  -9.6264
 5.15000    1.83     1.83   0.83072  -9.6260
 5.20000    1.83     1.83   0.82824  -9.6256
 5.25000    1.83     1.83   0.82898  -9.6257
 5.30000    1.83     1.83   0.82914  -9.6258
 5.35000    1.83     1.83   0.82917  -9.6256
 5.40000    1.83     1.83   0.82850  -9.6262
 5.45000    1.83     1.83   0.83181  -9.6255
 5.50000    1.83     1.83   0.82749  -9.6256
 5.55000    1.83     1.83   0.82816  -9.6258
 5.60000    1.83     1.83   0.82627  -9.6253
 5.65000    1.83     1.83   0.82862  -9.6255
 5.70000    1.83     1.83   0.82621  -9.6258
 5.75000    1.83     1.83   0.82456  -9.6252
 5.80000    1.83     1.83   0.82475  -9.6250
 5.85000    1.83     1.83   0.82154  -9.6247
 5.90000    1.83     1.83   0.82250  -9.6253
 5.95000    1.83     1.83   0.82362  -9.6251
 6.00000    1.83     1.83   0.82336  -9.6252
 6.05000    1.83     1.83   0.82346  -9.6251
 6.10000    1.83     1.83   0.82339  -9.6257
 6.15000    1.83     1.83   0.82256  -9.6253
 6.20000    1.83     1.83   0.82256  -9.6249
 6.25000    1.83     1.83   0.82160  -9.6248
 6.30000    1.83     1.83   0.82195  -9.6248
 6.35000    1.83     1.83   0.81941  -9.6246
 6.40000    1.83     1.83   0.82027  -9.6253
 6.45000    1.83     1.83   0.82002  -9.6249
 6.50000    1.83     1.83   0.81859  -9.6246
 6.55000    1.83     1.83   0.81502  -9.6248
 6.60000    1.83     1.83   0.81792  -9.6249
 6.65000    1.83     1.83   0.81678  -9.6246
 6.70000    1.83     1.83   0.81366  -9.6246
 6.75000    1.83     1.83   0.81334  -9.6250
 6.80000    1.83     1.83   0.81502  -9.6253
 6.85000    1.83     1.83   0.81189  -9.6247
 6.90000    1.83     1.83   0.81243  -9.6250
 6.95000    1.83     1.83   0.81411  -9.6249
 7.00000    1.83     1.83   0.81018  -9.6246
 7.00000    1.83     1.83   0.81182  -9.6247
 6.95000    1.83     1.83   0.81547  -9.6252
 6.90000    1.83     1.83   0.81243  -9.6247
 6.85000    1.83     1.83   0.81411  -9.6243
 6.80000    1.83     1.83   0.81360  -9.6248
 6.75000    1.83     1.83   0.81466  -9.6248
 6.70000    1.83     1.83   0.81462  -9.6250
 6.65000    1.83     1.83   0.81534  -9.6252
 6.60000    1.83     1.83   0.81557  -9.6246
 6.55000    1.83     1.83   0.81595  -9.6242
 6.50000    1.83     1.83   0.81688  -9.6244
 6.45000    1.83     1.83   0.81627  -9.6244
 6.40000    1.83     1.83   0.81502  -9.6245
 6.35000    1.83     1.83   0.81656  -9.6246
 6.30000    1.83     1.83   0.81744  -9.6244
 6.25000    1.83     1.83   0.81715  -9.6244
 6.20000    1.83     1.83   0.81557  -9.6245
 6.15000    1.83     1.83   0.81627  -9.6245
 6.10000    1.83     1.83   0.81824  -9.6244
 6.05000    1.83     1.83   0.81741  -9.6244
 6.00000    1.83     1.83   0.81802  -9.6241
 5.95000    1.83     1.83   0.81734  -9.6243
 5.90000    1.83     1.83   0.81741  -9.6244
 5.85000    1.83     1.83   0.81866  -9.6248
 5.80000    1.83     1.83   0.81859  -9.6240
 5.75000    1.83     1.83   0.81904  -9.6244
 5.70000    1.83     1.83   0.81979  -9.6245
 5.65000    1.83     1.83   0.82094  -9.6245
 5.60000    1.83     1.83   0.82189  -9.6243
 5.55000    1.83     1.83   0.82050  -9.6241
 5.50000    1.83     1.83   0.82130  -9.6244
 5.45000    1.83     1.83   0.82395  -9.6248
 5.40000    1.83     1.83   0.81979  -9.6242
 5.35000    1.83     1.83   0.82218  -9.6243
 5.30000    1.83     1.83   0.82189  -9.6244
 5.25000    1.83     1.83   0.82240  -9.6243
 5.20000    1.83     1.83   0.82285  -9.6241
 5.15000    1.83     1.83   0.82590  -9.6242
 5.10000    1.83     1.83   0.82688  -9.6238
 5.05000    1.83     1.83   0.82602  -9.6243
 5.00000    1.83     1.83   0.82546  -9.6244
 4.95000    1.83     1.83   0.82440  -9.6241
 4.90000    1.83     1.83   0.82762  -9.6240
 4.85000    1.83     1.83   0.82602  -9.6240
 4.80000    1.83     1.83   0.82726  -9.6245
 4.75000    1.83     1.83   0.82774  -9.6240
 4.70000    1.83     1.83   0.82837  -9.6243
 4.65000    1.83     1.83   0.82840  -9.6239
 4.60000    1.83     1.83   0.82611  -9.6235
 4.55000    1.83     1.83   0.82987  -9.6238
 4.50000    1.83     1.83   0.82891  -9.6241
 4.45000    1.83     1.83   0.83104  -9.6243
 4.40000    1.83     1.83   0.82965  -9.6235
 4.35000    1.83     1.83   0.82974  -9.6240
 4.30000    1.83     1.83   0.82923  -9.6240
 4.25000    1.83     1.83   0.83261  -9.6240
 4.20000    1.83     1.83   0.83232  -9.6240
 4.15000    1.83     1.83   0.83222  -9.6239
 4.10000    1.83     1.83   0.83072  -9.6238
 4.05000    1.83     1.83   0.83019  -9.6235
 4.00000    1.83     1.83   0.83232  -9.6234
 3.95000    1.83     1.83   0.83571  -9.6243
 3.90000    1.83     1.83   0.83226  -9.6239
 3.85000    1.83     1.83   0.83355  -9.6241
 3.80000    1.83     1.83   0.83326  -9.6237
 3.75000    1.83     1.83   0.83400  -9.6236
 3.70000    1.83     1.83   0.83514  -9.6240
 3.65000    1.83     1.83   0.83597  -9.6238
 3.60000    1.83     1.83   0.83235  -9.6238
 3.55000    1.83     1.83   0.83438  -9.6240
 3.50000    1.83     1.83   0.83533  -9.6241
 3.45000    1.83     1.83   0.83626  -9.6243
 3.40000    1.83     1.83   0.83680  -9.6240
 3.35000    1.83     1.83   0.83638  -9.6236
 3.30000    1.83     1.83   0.83648  -9.6238
 3.25000    1.83     1.83   0.83683  -9.6240
 3.20000    1.83     1.83   0.83794  -9.6243
 3.15000    1.83     1.83   0.83928  -9.6245
 3.10000    1.83     1.83   0.84000  -9.6238
 3.05000    1.83     1.83   0.84016  -9.6242
 3.00000    1.83     1.83   0.84187  -9.6246
 2.95000    1.83     1.83   0.84045  -9.6247
 2.90000    1.83     1.83   0.83816  -9.6239
 2.85000    1.83     1.83   0.84203  -9.6242
 2.80000    1.83     1.83   0.84187  -9.6244
 2.75000    1.83     1.83   0.84144  -9.6245
 2.70000    1.83     1.83   0.84302  -9.6246
 2.65000    1.83     1.83   0.84290  -9.6249
 2.60000    1.83     1.83   0.84325  -9.6249
 2.55000    1.83     1.83   0.84099  -9.6249
 2.50000    1.83     1.83   0.84438  -9.6250
 2.45000    1.83     1.83   0.84222  -9.6248
 2.40000    1.83     1.83   0.84370  -9.6254
 2.35000    1.83     1.83   0.84370  -9.6256
 2.30000    1.83     1.83   0.84360  -9.6255
 2.25000    1.83     1.83   0.84597  -9.6259
 2.20000    1.83     1.83   0.84416  -9.6259
 2.15000    1.83     1.83   0.84467  -9.6256
 2.10000    1.83     1.83   0.84366  -9.6262
 2.05000    1.83     1.83   0.84061  -9.6259
 2.00000    1.83     1.83   0.84522  -9.6262
 1.95000    1.83     1.83   0.84318  -9.6263
 1.90000    1.83     1.83   0.84413  -9.6265
 1.85000    1.83     1.83   0.84038  -9.6265
 1.80000    1.83     1.83   0.84410  -9.6275
 1.75000    1.83     1.83   0.84125  -9.6276
 1.70000    1.83     1.83   0.84219  -9.6273
 1.65000    1.83     1.83   0.84445  -9.6280
 1.60000    1.83     1.83   0.84280  -9.6285
 1.55000    1.83     1.83   0.84426  -9.6288
 1.50000    1.83     1.83   0.84486  -9.6291
 1.45000    1.83     1.83   0.83883  -9.6291
 1.40000    1.83     1.83   0.84200  -9.6294
 1.35000    1.83     1.83   0.84219  -9.6307
 1.30000    1.83     1.83   0.84074  -9.6311
 1.25000    1.83     1.83   0.84035  -9.6314
 1.20000    1.83     1.83   0.83842  -9.6319
 1.15000    1.83     1.83   0.83536  -9.6324
 1.10000    1.83     1.83   0.82926  -9.6330
 1.05000    1.83     1.83   0.82408  -9.6338
 1.00000    1.83     1.83   0.81843  -9.6346
 0.95000    1.83     1.83   0.81306  -9.6349
 0.90000    1.83     1.83   0.80776  -9.6346
 0.85000    1.83     1.83   0.80138  -9.6354
 0.80000    1.83     1.83   0.79829  -9.6351
 0.75000    1.83     1.83   0.78914  -9.6350
 0.70000    1.83     1.83   0.78179  -9.6353
 0.65000    1.83     1.83   0.77698  -9.6345
 0.60000    1.83     1.83   0.76982  -9.6341
 0.55000    1.83     1.83   0.76586  -9.6329
 0.50000    1.83     1.83   0.75661  -9.6317
 0.45000    1.83     1.83   0.75016  -9.6302
 0.40000    1.83     1.83   0.75126  -9.6276
 0.35000    1.83     1.83   0.75454  -9.6247
 0.30000    1.83     1.83   0.76541  -9.6247
 0.25000    1.83     1.83   0.77074  -9.6249
 0.20000    1.83     1.83   0.77154  -9.6246
 0.15000    1.83     1.83   0.77357  -9.6247
 0.10000    1.83     1.83   0.77462  -9.6244
 0.05000    1.83     1.83   0.77424  -9.6243
 -0.00000    1.83     1.83   0.77611  -9.6247
