 Field[T] Tsmpl[K] Tcntr[K] Signal   Mirror[MM]
 0.00000    1.87     1.89   0.01732  2.5718
 0.10000    1.87     1.89   0.01719  2.5715
 0.20000    1.87     0.00   0.01733  2.5719
 0.30000    1.87     1.89   0.01718  2.5719
 0.40000    1.87     1.89   0.01731  2.5719
 0.50000    1.87     1.89   0.01730  2.5717
 0.60000    1.87     1.89   0.01731  2.5718
 0.70000    1.87     1.89   0.01720  2.5713
 0.80000    1.87     1.89   0.01718  2.5715
 0.90000    1.87     1.89   0.01715  2.5712
 1.00000    1.87     1.89   0.01726  2.5716
 1.10000    1.87     1.89   0.01714  2.5709
 1.20000    1.87     1.89   0.01715  2.5710
 1.30000    1.87     1.89   0.01725  2.5709
 1.40000    1.87     1.89   0.01716  2.5709
 1.50000    1.87     1.89   0.01714  2.5703
 1.60000    1.87     1.89   0.01712  2.5705
 1.70000    1.87     1.89   0.01709  2.5705
 1.80000    1.87     1.89   0.01720  2.5703
 1.90000    1.87     1.89   0.01705  2.5710
 2.00000    1.87     1.89   0.01709  2.5704
 2.10000    1.87     1.90   0.01718  2.5702
 2.20000    1.87     1.90   0.01703  2.5704
 2.30000    1.87     1.90   0.01709  2.5702
 2.40000    1.87     1.90   0.01727  2.5704
 2.50000    1.87     1.90   0.01704  2.5702
 2.60000    1.87     1.90   0.01707  2.5702
 2.70000    1.87     1.90   0.01721  2.5705
 2.80000    1.87     1.90   0.01715  2.5705
 2.90000    1.87     1.90   0.01711  2.5700
 3.00000    1.87     1.90   0.01711  2.5701
 3.10000    1.87     1.90   0.01719  2.5701
 3.20000    1.87     1.90   0.01708  2.5701
 3.30000    1.87     1.91   0.01702  2.5700
 3.40000    1.87     1.91   0.01715  2.5708
 3.50000    1.88     1.91   0.01727  2.5700
 3.60000    1.88     1.91   0.01726  2.5700
 3.70000    1.88     1.91   0.01710  2.5703
 3.80000    1.88     1.91   0.01718  2.5700
 3.90000    1.88     1.91   0.01722  2.5703
 4.00000    1.88     1.91   0.01717  2.5705
 4.10000    1.88     1.91   0.01715  2.5700
 4.20000    1.88     1.91   0.01735  2.5701
 4.30000    1.88     1.92   0.01716  2.5704
 4.40000    1.88     1.92   0.01718  2.5698
 4.50000    1.88     1.92   0.01731  2.5698
 4.60000    1.88     1.92   0.01740  2.5701
 4.70000    1.88     1.92   0.01740  2.5704
 4.80000    1.88     1.92   0.01744  2.5702
 4.90000    1.88     1.92   0.01743  2.5702
 5.00000    1.88     1.92   0.01741  2.5704
 5.10000    1.89     1.92   0.01749  2.5702
 5.20000    1.89     1.92   0.01735  2.5696
 5.30000    1.89     1.92   0.01754  2.5704
 5.40000    1.89     1.93   0.01756  2.5705
 5.50000    1.89     1.93   0.01749  2.5708
 5.60000    1.89     1.93   0.01747  2.5707
 5.70000    1.89     1.93   0.01755  2.5711
 5.80000    1.89     1.93   0.01756  2.5709
 5.90000    1.89     1.93   0.01761  2.5716
 6.00000    1.89     1.93   0.01742  2.5716
 6.10000    1.89     1.93   0.01751  2.5717
 6.20000    1.89     1.93   0.01749  2.5715
 6.30000    1.89     1.93   0.01739  2.5716
 6.40000    1.89     1.94   0.01745  2.5716
 6.50000    1.89     1.94   0.01742  2.5720
 6.60000    1.90     1.94   0.01752  2.5718
 6.70000    1.90     1.94   0.01738  2.5716
 6.80000    1.90     1.94   0.01744  2.5716
 6.90000    1.90     1.94   0.01749  2.5716
 7.00000    1.90     1.94   0.01746  2.5714
