 Field[T] Tsmpl[K] Tcntr[K] Signal   Mirror[MM]
 0.00000    1.83     1.83   0.99311  -9.7073
 0.05000    1.83     1.83   0.98873  -9.7065
 0.10000    1.83     1.83   0.98333  -9.7076
 0.15000    1.83     1.83   0.98204  -9.7072
 0.20000    1.83     1.83   0.97106  -9.7078
 0.25000    1.83     1.83   0.96814  -9.7100
 0.30000    1.83     1.83   0.96136  -9.7106
 0.35000    1.83     1.83   0.96128  -9.7115
 0.40000    1.83     1.83   0.96514  -9.7131
 0.45000    1.83     1.83   0.96548  -9.7150
 0.50000    1.83     1.83   0.96969  -9.7156
 0.55000    1.83     1.83   0.96874  -9.7159
 0.60000    1.83     1.83   0.96831  -9.7156
 0.65000    1.83     1.83   0.97389  -9.7163
 0.70000    1.83     1.83   0.98144  -9.7166
 0.75000    1.83     1.83   0.98608  -9.7171
 0.80000    1.83     1.83   0.98882  -9.7172
 0.85000    1.83     1.83   0.98342  -9.7161
 0.90000    1.83     1.83   0.98642  -9.7160
 0.95000    1.83     1.83   0.99817  -9.7161
 1.00000    1.83     1.83   1.00109  -9.7153
 1.05000    1.83     1.83   1.00487  -9.7156
 1.10000    1.83     1.83   1.00444  -9.7151
 1.15000    1.83     1.83   1.00323  -9.7147
 1.20000    1.83     1.83   1.00512  -9.7143
 1.25000    1.83     1.83   1.00813  -9.7143
 1.30000    1.83     1.83   0.99955  -9.7132
 1.35000    1.83     1.83   0.99955  -9.7123
 1.40000    1.83     1.83   1.00178  -9.7126
 1.45000    1.83     1.83   0.99577  -9.7130
 1.50000    1.83     1.83   1.00375  -9.7126
 1.55000    1.83     1.83   1.00058  -9.7124
 1.60000    1.83     1.83   1.00392  -9.7120
 1.65000    1.83     1.83   1.00581  -9.7125
 1.70000    1.83     1.83   1.00049  -9.7121
 1.75000    1.83     1.83   1.00255  -9.7122
 1.80000    1.83     1.83   0.99852  -9.7128
 1.85000    1.83     1.83   0.99543  -9.7120
 1.90000    1.83     1.83   0.99963  -9.7121
 1.95000    1.83     1.83   0.99774  -9.7116
 2.00000    1.83     1.83   0.99903  -9.7111
 2.05000    1.83     1.83   0.99637  -9.7116
 2.10000    1.83     1.83   0.99277  -9.7112
 2.15000    1.83     1.83   0.98753  -9.7110
 2.20000    1.83     1.83   0.99251  -9.7105
 2.25000    1.83     1.83   0.99517  -9.7109
 2.30000    1.83     1.83   0.99397  -9.7112
 2.35000    1.83     1.83   0.99191  -9.7105
 2.40000    1.83     1.83   0.97870  -9.7099
 2.45000    1.83     1.83   0.98608  -9.7097
 2.50000    1.83     1.83   0.99054  -9.7106
 2.55000    1.83     1.83   0.98985  -9.7101
 2.60000    1.83     1.83   0.99131  -9.7103
 2.65000    1.83     1.83   0.99002  -9.7100
 2.70000    1.83     1.83   0.98736  -9.7101
 2.75000    1.83     1.83   0.98599  -9.7102
 2.80000    1.83     1.83   0.98565  -9.7099
 2.85000    1.83     1.83   0.98891  -9.7099
 2.90000    1.83     1.83   0.98590  -9.7096
 2.95000    1.83     1.83   0.98402  -9.7099
 3.00000    1.83     1.83   0.98582  -9.7096
 3.05000    1.83     1.83   0.98350  -9.7097
 3.10000    1.83     1.83   0.97810  -9.7100
 3.15000    1.83     1.83   0.97955  -9.7099
 3.20000    1.83     1.83   0.98015  -9.7098
 3.25000    1.83     1.83   0.97732  -9.7095
 3.30000    1.83     1.83   0.97269  -9.7103
 3.35000    1.83     1.83   0.97432  -9.7098
 3.40000    1.83     1.83   0.97363  -9.7099
 3.45000    1.83     1.83   0.96986  -9.7100
 3.50000    1.83     1.83   0.96626  -9.7097
 3.55000    1.83     1.83   0.97621  -9.7100
 3.60000    1.83     1.83   0.97012  -9.7099
 3.65000    1.83     1.83   0.96986  -9.7099
 3.70000    1.83     1.83   0.97192  -9.7105
 3.75000    1.83     1.83   0.96960  -9.7103
 3.80000    1.83     1.83   0.96600  -9.7104
 3.85000    1.83     1.83   0.96711  -9.7100
 3.90000    1.83     1.83   0.96334  -9.7100
 3.95000    1.83     1.83   0.95922  -9.7093
 4.00000    1.83     1.83   0.96076  -9.7098
 4.05000    1.83     1.83   0.95819  -9.7095
 4.10000    1.83     1.83   0.95956  -9.7101
 4.15000    1.83     1.83   0.95793  -9.7100
 4.20000    1.83     1.83   0.95879  -9.7099
 4.25000    1.83     1.83   0.95802  -9.7100
 4.30000    1.83     1.83   0.96076  -9.7103
 4.35000    1.83     1.83   0.95939  -9.7099
 4.40000    1.83     1.83   0.96008  -9.7104
 4.45000    1.83     1.83   0.95810  -9.7097
 4.50000    1.83     1.83   0.96128  -9.7100
 4.55000    1.83     1.83   0.96608  -9.7103
 4.60000    1.83     1.83   0.96051  -9.7096
 4.65000    1.83     1.83   0.95948  -9.7095
 4.70000    1.83     1.83   0.95673  -9.7096
 4.75000    1.83     1.83   0.95707  -9.7101
 4.80000    1.83     1.83   0.96076  -9.7101
 4.85000    1.83     1.83   0.95802  -9.7092
 4.90000    1.83     1.83   0.95630  -9.7092
 4.95000    1.83     1.83   0.95536  -9.7093
 5.00000    1.83     1.83   0.95656  -9.7091
 5.05000    1.83     1.83   0.95802  -9.7092
 5.10000    1.83     1.83   0.95630  -9.7089
 5.15000    1.83     1.83   0.95459  -9.7089
 5.20000    1.83     1.83   0.95502  -9.7091
 5.25000    1.83     1.83   0.95544  -9.7091
 5.30000    1.83     1.83   0.95536  -9.7089
 5.35000    1.83     1.83   0.95562  -9.7089
 5.40000    1.83     1.83   0.95278  -9.7088
 5.45000    1.83     1.83   0.95707  -9.7094
 5.50000    1.83     1.83   0.95176  -9.7087
 5.55000    1.83     1.83   0.95047  -9.7086
 5.60000    1.83     1.83   0.95399  -9.7085
 5.65000    1.83     1.83   0.94970  -9.7080
 5.70000    1.83     1.83   0.95201  -9.7082
 5.75000    1.83     1.83   0.95150  -9.7089
 5.80000    1.83     1.83   0.95321  -9.7092
 5.85000    1.83     1.83   0.95450  -9.7094
 5.90000    1.83     1.83   0.94644  -9.7083
 5.95000    1.83     1.83   0.94746  -9.7089
 6.00000    1.83     1.83   0.95073  -9.7089
 6.05000    1.83     1.83   0.94463  -9.7091
 6.10000    1.83     1.83   0.94309  -9.7089
 6.15000    1.83     1.83   0.94266  -9.7089
 6.20000    1.83     1.83   0.94317  -9.7090
 6.25000    1.83     1.83   0.94240  -9.7092
 6.30000    1.83     1.83   0.93786  -9.7087
 6.35000    1.83     1.83   0.93914  -9.7091
 6.40000    1.83     1.83   0.94429  -9.7090
 6.45000    1.83     1.83   0.93914  -9.7084
 6.50000    1.83     1.83   0.93751  -9.7076
 6.55000    1.83     1.83   0.93828  -9.7084
 6.60000    1.83     1.83   0.94549  -9.7082
 6.65000    1.83     1.83   0.94172  -9.7083
 6.70000    1.83     1.83   0.93983  -9.7080
 6.75000    1.83     1.83   0.94326  -9.7081
 6.80000    1.83     1.83   0.94369  -9.7078
 6.85000    1.83     1.83   0.93417  -9.7083
 6.90000    1.83     1.83   0.93940  -9.7082
 6.95000    1.83     1.83   0.93966  -9.7082
 7.00000    1.83     1.83   0.93940  -9.7076
 7.00000    1.83     1.83   0.93966  -9.7084
 6.95000    1.83     1.83   0.93837  -9.7076
 6.90000    1.83     1.83   0.93554  -9.7087
 6.85000    1.83     1.83   0.93288  -9.7084
 6.80000    1.83     1.83   0.94515  -9.7086
 6.75000    1.83     1.83   0.94043  -9.7087
 6.70000    1.83     1.83   0.94635  -9.7091
 6.65000    1.83     1.83   0.94978  -9.7086
 6.60000    1.83     1.83   0.94335  -9.7082
 6.55000    1.83     1.83   0.94017  -9.7082
 6.50000    1.83     1.83   0.94566  -9.7081
 6.45000    1.83     1.83   0.94360  -9.7079
 6.40000    1.83     1.83   0.94275  -9.7078
 6.35000    1.83     1.83   0.93296  -9.7074
 6.30000    1.83     1.83   0.94154  -9.7082
 6.25000    1.83     1.83   0.94112  -9.7084
 6.20000    1.83     1.83   0.94335  -9.7083
 6.15000    1.83     1.83   0.94189  -9.7087
 6.10000    1.83     1.83   0.93914  -9.7080
 6.05000    1.83     1.83   0.94017  -9.7078
 6.00000    1.83     1.83   0.93923  -9.7074
 5.95000    1.83     1.83   0.94120  -9.7078
 5.90000    1.83     1.83   0.94180  -9.7082
 5.85000    1.83     1.83   0.94240  -9.7078
 5.80000    1.83     1.83   0.95021  -9.7081
 5.75000    1.83     1.83   0.94867  -9.7084
 5.70000    1.83     1.83   0.94927  -9.7084
 5.65000    1.83     1.83   0.94360  -9.7080
 5.60000    1.83     1.83   0.94892  -9.7082
 5.55000    1.83     1.83   0.94601  -9.7078
 5.50000    1.83     1.83   0.94824  -9.7079
 5.45000    1.83     1.83   0.94523  -9.7077
 5.40000    1.83     1.83   0.94901  -9.7084
 5.35000    1.83     1.83   0.95004  -9.7083
 5.30000    1.83     1.83   0.95253  -9.7082
 5.25000    1.83     1.83   0.95261  -9.7084
 5.20000    1.83     1.83   0.95021  -9.7086
 5.15000    1.83     1.83   0.95407  -9.7081
 5.10000    1.83     1.83   0.95081  -9.7082
 5.05000    1.83     1.83   0.95047  -9.7078
 5.00000    1.83     1.83   0.95141  -9.7080
 4.95000    1.83     1.83   0.95579  -9.7081
 4.90000    1.83     1.83   0.95339  -9.7081
 4.85000    1.83     1.83   0.95888  -9.7084
 4.80000    1.83     1.83   0.95287  -9.7083
 4.75000    1.83     1.83   0.95407  -9.7079
 4.70000    1.83     1.83   0.95759  -9.7081
 4.65000    1.83     1.83   0.95510  -9.7085
 4.60000    1.83     1.83   0.95647  -9.7084
 4.55000    1.83     1.83   0.95613  -9.7084
 4.50000    1.83     1.83   0.95373  -9.7084
 4.45000    1.83     1.83   0.96025  -9.7090
 4.40000    1.83     1.83   0.96239  -9.7087
 4.35000    1.83     1.83   0.95991  -9.7085
 4.30000    1.83     1.83   0.95467  -9.7080
 4.25000    1.83     1.83   0.95493  -9.7088
 4.20000    1.83     1.83   0.96085  -9.7085
 4.15000    1.83     1.83   0.95768  -9.7085
 4.10000    1.83     1.83   0.96342  -9.7086
 4.05000    1.83     1.83   0.96471  -9.7087
 4.00000    1.83     1.83   0.96823  -9.7087
 3.95000    1.83     1.83   0.96360  -9.7087
 3.90000    1.83     1.83   0.96145  -9.7080
 3.85000    1.83     1.83   0.96411  -9.7085
 3.80000    1.83     1.83   0.96008  -9.7074
 3.75000    1.83     1.83   0.96257  -9.7088
 3.70000    1.83     1.83   0.96531  -9.7091
 3.65000    1.83     1.83   0.96514  -9.7089
 3.60000    1.83     1.83   0.97329  -9.7090
 3.55000    1.83     1.83   0.96909  -9.7088
 3.50000    1.83     1.83   0.97055  -9.7088
 3.45000    1.83     1.83   0.96806  -9.7090
 3.40000    1.83     1.83   0.96754  -9.7089
 3.35000    1.83     1.83   0.97012  -9.7092
 3.30000    1.83     1.83   0.96214  -9.7085
 3.25000    1.83     1.83   0.96823  -9.7088
 3.20000    1.83     1.83   0.97724  -9.7093
 3.15000    1.83     1.83   0.96686  -9.7088
 3.10000    1.83     1.83   0.97260  -9.7092
 3.05000    1.83     1.83   0.97003  -9.7090
 3.00000    1.83     1.83   0.96943  -9.7092
 2.95000    1.83     1.83   0.96986  -9.7095
 2.90000    1.83     1.83   0.97415  -9.7094
 2.85000    1.83     1.83   0.97586  -9.7098
 2.80000    1.83     1.83   0.97930  -9.7102
 2.75000    1.83     1.83   0.98033  -9.7096
 2.70000    1.83     1.83   0.97741  -9.7096
 2.65000    1.83     1.83   0.97938  -9.7097
 2.60000    1.83     1.83   0.97423  -9.7090
 2.55000    1.83     1.83   0.97921  -9.7095
 2.50000    1.83     1.83   0.97732  -9.7086
 2.45000    1.83     1.83   0.97741  -9.7099
 2.40000    1.83     1.83   0.97792  -9.7097
 2.35000    1.83     1.83   0.97020  -9.7095
 2.30000    1.83     1.83   0.97569  -9.7094
 2.25000    1.83     1.83   0.97750  -9.7101
 2.20000    1.83     1.83   0.97398  -9.7099
 2.15000    1.83     1.83   0.97724  -9.7090
 2.10000    1.83     1.83   0.97878  -9.7108
 2.05000    1.83     1.83   0.97647  -9.7104
 2.00000    1.83     1.83   0.97801  -9.7102
 1.95000    1.83     1.83   0.97844  -9.7108
 1.90000    1.83     1.83   0.98058  -9.7110
 1.85000    1.83     1.83   0.97827  -9.7110
 1.80000    1.83     1.83   0.97381  -9.7103
 1.75000    1.83     1.83   0.97243  -9.7109
 1.70000    1.83     1.83   0.97363  -9.7114
 1.65000    1.83     1.83   0.97672  -9.7113
 1.60000    1.83     1.83   0.97303  -9.7111
 1.55000    1.83     1.83   0.97681  -9.7117
 1.50000    1.83     1.83   0.97913  -9.7125
 1.45000    1.83     1.83   0.97827  -9.7124
 1.40000    1.83     1.83   0.98024  -9.7123
 1.35000    1.83     1.83   0.97801  -9.7125
 1.30000    1.83     1.83   0.97604  -9.7128
 1.25000    1.83     1.83   0.97492  -9.7131
 1.20000    1.83     1.83   0.97698  -9.7131
 1.15000    1.83     1.83   0.97321  -9.7137
 1.10000    1.83     1.83   0.96428  -9.7130
 1.05000    1.83     1.83   0.96136  -9.7133
 1.00000    1.83     1.83   0.96214  -9.7144
 0.95000    1.83     1.83   0.95450  -9.7144
 0.90000    1.83     1.83   0.95459  -9.7145
 0.85000    1.83     1.83   0.95218  -9.7153
 0.80000    1.83     1.83   0.94498  -9.7154
 0.75000    1.83     1.83   0.93828  -9.7151
 0.70000    1.83     1.83   0.93485  -9.7152
 0.65000    1.83     1.83   0.93554  -9.7147
 0.60000    1.83     1.83   0.92396  -9.7137
 0.55000    1.83     1.83   0.91889  -9.7133
 0.50000    1.83     1.83   0.91340  -9.7121
 0.45000    1.83     1.83   0.91237  -9.7118
 0.40000    1.83     1.83   0.89864  -9.7113
 0.35000    1.83     1.83   0.89830  -9.7103
 0.30000    1.83     1.83   0.90302  -9.7094
 0.25000    1.83     1.83   0.90036  -9.7077
 0.20000    1.83     1.83   0.90182  -9.7051
 0.15000    1.83     1.83   0.91126  -9.7047
 0.10000    1.83     1.83   0.91821  -9.7045
 0.05000    1.83     1.83   0.92361  -9.7055
 -0.00000    1.83     1.83   0.91409  -9.7038
 -0.05000    1.83     1.83   0.91306  -9.7048
 -0.10000    1.83     1.83   0.90834  -9.7040
 -0.15000    1.83     1.83   0.91563  -9.7042
 -0.20000    1.83     1.83   0.90645  -9.7042
 -0.25000    1.83     1.83   0.89384  -9.7064
 -0.30000    1.83     1.83   0.89624  -9.7080
 -0.35000    1.83     1.83   0.90122  -9.7089
 -0.40000    1.83     1.83   0.91272  -9.7105
 -0.45000    1.83     1.83   0.91126  -9.7109
 -0.50000    1.83     1.83   0.91383  -9.7116
 -0.55000    1.83     1.83   0.91838  -9.7120
 -0.60000    1.83     1.83   0.92636  -9.7123
 -0.65000    1.83     1.83   0.92584  -9.7125
 -0.70000    1.83     1.83   0.93048  -9.7131
 -0.75000    1.83     1.83   0.93657  -9.7123
 -0.80000    1.83     1.83   0.94549  -9.7130
 -0.85000    1.83     1.83   0.94678  -9.7125
 -0.90000    1.83     1.83   0.95158  -9.7125
 -0.95000    1.83     1.83   0.95527  -9.7121
 -1.00000    1.83     1.83   0.95339  -9.7114
 -1.05000    1.83     1.83   0.95467  -9.7106
 -1.10000    1.83     1.83   0.96634  -9.7108
 -1.15000    1.83     1.83   0.96128  -9.7105
 -1.20000    1.83     1.83   0.96926  -9.7098
 -1.25000    1.83     1.83   0.95750  -9.7092
 -1.30000    1.83     1.83   0.96274  -9.7092
 -1.35000    1.83     1.83   0.96771  -9.7090
 -1.40000    1.83     1.83   0.96694  -9.7085
 -1.45000    1.83     1.83   0.96505  -9.7088
 -1.50000    1.83     1.83   0.97003  -9.7090
 -1.55000    1.83     1.83   0.96866  -9.7086
 -1.60000    1.83     1.83   0.97363  -9.7082
 -1.65000    1.83     1.83   0.97166  -9.7072
 -1.70000    1.83     1.83   0.97355  -9.7078
 -1.75000    1.83     1.83   0.97012  -9.7074
 -1.80000    1.83     1.83   0.97218  -9.7070
 -1.85000    1.83     1.83   0.97398  -9.7068
 -1.90000    1.83     1.83   0.97415  -9.7065
 -1.95000    1.83     1.83   0.97604  -9.7072
 -2.00000    1.83     1.83   0.97389  -9.7062
 -2.05000    1.83     1.83   0.97689  -9.7060
 -2.10000    1.83     1.83   0.98015  -9.7063
 -2.15000    1.83     1.83   0.97629  -9.7056
 -2.20000    1.83     1.83   0.97750  -9.7058
 -2.25000    1.83     1.83   0.97509  -9.7056
 -2.30000    1.83     1.83   0.97441  -9.7059
 -2.35000    1.83     1.83   0.97844  -9.7060
 -2.40000    1.83     1.83   0.97604  -9.7056
 -2.45000    1.83     1.83   0.97715  -9.7059
 -2.50000    1.83     1.83   0.97192  -9.7051
 -2.55000    1.83     1.83   0.96411  -9.7010
 -2.60000    1.83     1.83   0.97398  -9.7049
 -2.65000    1.83     1.83   0.97578  -9.7040
 -2.70000    1.83     1.83   0.97698  -9.7048
 -2.75000    1.83     1.83   0.97981  -9.7054
 -2.80000    1.83     1.83   0.97612  -9.7055
 -2.85000    1.83     1.83   0.98307  -9.7061
 -2.90000    1.83     1.83   0.98136  -9.7046
 -2.95000    1.83     1.83   0.98007  -9.7045
 -3.00000    1.83     1.83   0.98316  -9.7056
 -3.05000    1.83     1.83   0.98247  -9.7055
 -3.10000    1.83     1.83   0.97166  -9.7036
 -3.15000    1.83     1.83   0.98384  -9.7056
 -3.20000    1.83     1.83   0.97870  -9.7047
 -3.25000    1.83     1.83   0.98187  -9.7051
 -3.30000    1.83     1.83   0.98882  -9.7054
 -3.35000    1.83     1.83   0.98290  -9.7056
 -3.40000    1.83     1.83   0.98728  -9.7055
 -3.45000    1.83     1.83   0.99157  -9.7066
 -3.50000    1.83     1.83   0.99097  -9.7061
 -3.55000    1.83     1.83   0.99363  -9.7059
 -3.60000    1.83     1.83   0.99157  -9.7059
 -3.65000    1.83     1.83   0.98505  -9.7048
 -3.70000    1.83     1.83   0.99131  -9.7050
 -3.75000    1.83     1.83   0.99774  -9.7062
 -3.80000    1.83     1.83   0.98925  -9.7046
 -3.85000    1.83     1.83   0.98891  -9.7044
 -3.90000    1.83     1.83   0.99611  -9.7056
 -3.95000    1.83     1.83   0.99912  -9.7052
 -4.00000    1.83     1.83   0.99654  -9.7062
 -4.05000    1.83     1.83   0.99740  -9.7061
 -4.10000    1.83     1.83   1.00015  -9.7062
 -4.15000    1.83     1.83   0.99989  -9.7060
 -4.20000    1.83     1.83   0.99826  -9.7055
 -4.25000    1.83     1.83   0.99714  -9.7060
 -4.30000    1.83     1.83   1.00289  -9.7055
 -4.35000    1.83     1.83   0.99834  -9.7056
 -4.40000    1.83     1.83   1.00375  -9.7063
 -4.45000    1.83     1.83   1.00478  -9.7054
 -4.50000    1.83     1.83   1.00315  -9.7058
 -4.55000    1.83     1.83   1.00461  -9.7059
 -4.60000    1.83     1.83   1.00898  -9.7058
 -4.65000    1.83     1.83   1.00632  -9.7060
 -4.70000    1.83     1.83   1.00487  -9.7062
 -4.75000    1.83     1.83   1.00478  -9.7063
 -4.80000    1.83     1.83   1.00795  -9.7054
 -4.85000    1.83     1.83   1.00744  -9.7057
 -4.90000    1.83     1.83   1.00916  -9.7057
 -4.95000    1.83     1.83   1.00838  -9.7051
 -5.00000    1.83     1.83   1.01516  -9.7055
 -5.05000    1.83     1.83   1.01396  -9.7058
 -5.10000    1.83     1.83   1.01233  -9.7059
 -5.15000    1.83     1.83   1.01336  -9.7063
 -5.20000    1.83     1.83   1.01113  -9.7056
 -5.25000    1.83     1.83   1.01387  -9.7064
 -5.30000    1.83     1.83   1.01104  -9.7058
 -5.35000    1.83     1.83   1.01087  -9.7055
 -5.40000    1.83     1.83   1.01302  -9.7057
 -5.45000    1.83     1.83   1.01156  -9.7054
 -5.50000    1.83     1.83   1.01027  -9.7059
 -5.55000    1.83     1.83   1.01602  -9.7048
 -5.60000    1.83     1.83   1.01619  -9.7054
 -5.65000    1.83     1.83   1.02014  -9.7056
 -5.70000    1.83     1.83   1.02040  -9.7062
 -5.75000    1.83     1.83   1.01902  -9.7053
 -5.80000    1.83     1.83   1.01834  -9.7044
 -5.85000    1.83     1.83   1.01336  -9.7044
 -5.90000    1.83     1.83   1.02168  -9.7056
 -5.95000    1.83     1.83   1.01842  -9.7054
 -6.00000    1.83     1.83   1.01971  -9.7051
 -6.05000    1.83     1.83   1.01988  -9.7051
 -6.10000    1.83     1.83   1.02245  -9.7050
 -6.15000    1.83     1.83   1.02348  -9.7056
 -6.20000    1.83     1.83   1.02057  -9.7051
 -6.25000    1.83     1.83   1.02057  -9.7053
 -6.30000    1.83     1.83   1.01997  -9.7052
 -6.35000    1.83     1.83   1.01997  -9.7048
 -6.40000    1.83     1.83   1.02460  -9.7046
 -6.45000    1.83     1.83   1.02795  -9.7052
 -6.50000    1.83     1.83   1.02700  -9.7054
 -6.55000    1.83     1.83   1.02760  -9.7046
 -6.60000    1.83     1.83   1.02692  -9.7058
 -6.65000    1.83     1.83   1.02117  -9.7047
 -6.70000    1.83     1.83   1.01756  -9.7045
 -6.75000    1.83     1.83   1.01971  -9.7043
 -6.80000    1.83     1.83   1.01842  -9.7048
 -6.85000    1.83     1.83   1.02391  -9.7049
 -6.90000    1.83     1.83   1.02717  -9.7049
 -6.95000    1.83     1.83   1.02305  -9.7047
 -7.00000    1.83     1.83   1.02280  -9.7047
 -7.00000    1.83     1.83   1.02571  -9.7048
 -6.95000    1.83     1.83   1.02597  -9.7051
 -6.90000    1.83     1.83   1.00855  -9.7019
 -6.85000    1.83     1.83   1.00984  -9.7050
 -6.80000    1.83     1.83   1.01207  -9.7029
 -6.75000    1.83     1.83   1.01370  -9.7046
 -6.70000    1.83     1.83   1.01490  -9.7052
 -6.65000    1.83     1.83   1.00984  -9.7044
 -6.60000    1.83     1.83   1.01216  -9.7043
 -6.55000    1.83     1.83   1.00787  -9.7043
 -6.50000    1.83     1.83   1.01988  -9.7055
 -6.45000    1.83     1.83   1.01842  -9.7050
 -6.40000    1.83     1.83   1.02091  -9.7053
 -6.35000    1.83     1.83   1.02305  -9.7052
 -6.30000    1.83     1.83   1.01928  -9.7047
 -6.25000    1.83     1.83   1.01722  -9.7044
 -6.20000    1.83     1.83   1.02160  -9.7055
 -6.15000    1.83     1.83   1.00795  -9.7033
 -6.10000    1.83     1.83   1.01576  -9.7044
 -6.05000    1.83     1.83   1.01979  -9.7056
 -6.00000    1.83     1.83   1.01027  -9.7049
 -5.95000    1.83     1.83   1.01182  -9.7053
 -5.90000    1.83     1.83   1.00941  -9.7055
 -5.85000    1.83     1.83   1.00650  -9.7053
 -5.80000    1.83     1.83   1.01696  -9.7057
 -5.75000    1.83     1.83   1.01576  -9.7052
 -5.70000    1.83     1.83   1.01345  -9.7053
 -5.65000    1.83     1.83   1.01688  -9.7054
 -5.60000    1.83     1.83   1.01259  -9.7051
 -5.55000    1.83     1.83   1.00727  -9.7056
 -5.50000    1.83     1.83   1.01585  -9.7049
 -5.45000    1.83     1.83   1.00761  -9.7050
 -5.40000    1.83     1.83   1.01379  -9.7044
 -5.35000    1.83     1.83   1.01542  -9.7059
 -5.30000    1.83     1.83   1.01327  -9.7049
 -5.25000    1.83     1.83   1.01216  -9.7055
 -5.20000    1.83     1.83   1.01216  -9.7051
 -5.15000    1.83     1.83   1.01447  -9.7061
 -5.10000    1.83     1.83   1.01508  -9.7057
 -5.05000    1.83     1.83   1.00821  -9.7051
 -5.00000    1.83     1.83   1.00993  -9.7054
 -4.95000    1.83     1.83   1.00795  -9.7056
 -4.90000    1.83     1.83   1.01284  -9.7055
 -4.85000    1.83     1.83   1.01207  -9.7052
 -4.80000    1.83     1.83   1.00641  -9.7056
 -4.75000    1.83     1.83   1.01036  -9.7056
 -4.70000    1.83     1.83   1.01001  -9.7061
 -4.65000    1.83     1.83   1.01079  -9.7059
 -4.60000    1.83     1.83   1.00735  -9.7056
 -4.55000    1.83     1.83   1.00366  -9.7053
 -4.50000    1.83     1.83   1.00444  -9.7056
 -4.45000    1.83     1.83   1.00744  -9.7061
 -4.40000    1.83     1.83   1.00916  -9.7064
 -4.35000    1.83     1.83   1.00941  -9.7062
 -4.30000    1.83     1.83   1.00581  -9.7067
 -4.25000    1.83     1.83   1.00555  -9.7064
 -4.20000    1.83     1.83   1.00735  -9.7067
 -4.15000    1.83     1.83   1.00855  -9.7067
 -4.10000    1.83     1.83   1.00890  -9.7066
 -4.05000    1.83     1.83   1.00469  -9.7069
 -4.00000    1.83     1.83   1.00323  -9.7068
 -3.95000    1.83     1.83   1.00195  -9.7063
 -3.90000    1.83     1.83   1.00581  -9.7071
 -3.85000    1.83     1.83   1.00632  -9.7070
 -3.80000    1.83     1.83   1.00675  -9.7070
 -3.75000    1.83     1.83   1.00092  -9.7063
 -3.70000    1.83     1.83   0.99800  -9.7056
 -3.65000    1.83     1.83   0.98625  -9.7053
 -3.60000    1.83     1.83   0.99062  -9.7063
 -3.55000    1.83     1.83   0.98384  -9.7057
 -3.50000    1.83     1.83   0.98505  -9.7062
 -3.45000    1.83     1.83   0.98925  -9.7071
 -3.40000    1.83     1.83   0.99002  -9.7068
 -3.35000    1.83     1.83   0.99577  -9.7072
 -3.30000    1.83     1.83   0.99654  -9.7070
 -3.25000    1.83     1.83   1.00083  -9.7069
 -3.20000    1.83     1.83   0.99912  -9.7066
 -3.15000    1.83     1.83   0.99929  -9.7066
 -3.10000    1.83     1.83   1.00023  -9.7069
 -3.05000    1.83     1.83   1.00289  -9.7071
 -3.00000    1.83     1.83   1.00066  -9.7069
 -2.95000    1.83     1.83   1.00109  -9.7070
 -2.90000    1.83     1.83   1.00186  -9.7069
 -2.85000    1.83     1.83   1.00135  -9.7069
 -2.80000    1.83     1.83   1.00169  -9.7069
 -2.75000    1.83     1.83   0.99886  -9.7071
 -2.70000    1.83     1.83   0.99551  -9.7071
 -2.65000    1.83     1.83   0.99774  -9.7073
 -2.60000    1.83     1.83   0.99757  -9.7068
 -2.55000    1.83     1.83   1.00109  -9.7080
 -2.50000    1.83     1.83   0.99723  -9.7075
 -2.45000    1.83     1.83   0.99448  -9.7078
 -2.40000    1.83     1.83   0.99457  -9.7081
 -2.35000    1.83     1.83   1.00092  -9.7083
 -2.30000    1.83     1.83   0.98633  -9.7085
 -2.25000    1.83     1.83   0.99225  -9.7079
 -2.20000    1.83     1.83   0.99088  -9.7081
 -2.15000    1.83     1.83   0.99011  -9.7086
 -2.10000    1.83     1.83   0.99174  -9.7087
 -2.05000    1.83     1.83   0.98865  -9.7086
 -2.00000    1.83     1.83   0.99277  -9.7085
 -1.95000    1.83     1.83   0.98951  -9.7094
 -1.90000    1.83     1.83   0.98942  -9.7092
 -1.85000    1.83     1.83   0.99028  -9.7093
 -1.80000    1.83     1.83   0.99354  -9.7101
 -1.75000    1.83     1.83   0.98668  -9.7110
 -1.70000    1.83     1.83   0.98642  -9.7107
 -1.65000    1.83     1.83   0.98333  -9.7097
 -1.60000    1.83     1.83   0.97355  -9.7100
 -1.55000    1.83     1.83   0.97878  -9.7103
 -1.50000    1.83     1.83   0.97329  -9.7103
 -1.45000    1.83     1.83   0.97921  -9.7102
 -1.40000    1.83     1.83   0.98256  -9.7108
 -1.35000    1.83     1.83   0.97792  -9.7112
 -1.30000    1.83     1.83   0.96814  -9.7089
 -1.25000    1.83     1.83   0.96900  -9.7089
 -1.20000    1.83     1.83   0.96437  -9.7083
 -1.15000    1.83     1.83   0.96977  -9.7112
 -1.10000    1.83     1.83   0.96857  -9.7117
 -1.05000    1.83     1.83   0.96317  -9.7121
 -1.00000    1.83     1.83   0.96231  -9.7126
 -0.95000    1.83     1.83   0.95939  -9.7131
 -0.90000    1.83     1.83   0.94678  -9.7127
 -0.85000    1.83     1.83   0.94669  -9.7139
 -0.80000    1.83     1.83   0.94000  -9.7134
 -0.75000    1.83     1.83   0.93425  -9.7143
 -0.70000    1.83     1.83   0.93151  -9.7140
 -0.65000    1.83     1.83   0.92387  -9.7129
 -0.60000    1.83     1.83   0.91915  -9.7125
 -0.55000    1.83     1.83   0.91194  -9.7119
 -0.50000    1.83     1.83   0.90954  -9.7114
 -0.45000    1.83     1.83   0.91023  -9.7110
 -0.40000    1.83     1.83   0.89839  -9.7099
 -0.35000    1.83     1.83   0.88972  -9.7089
 -0.30000    1.83     1.83   0.89212  -9.7080
 -0.25000    1.83     1.83   0.88758  -9.7071
 -0.20000    1.83     1.83   0.88569  -9.7044
 -0.15000    1.83     1.83   0.89410  -9.7033
 -0.10000    1.83     1.83   0.90096  -9.7036
 -0.05000    1.83     1.83   0.90216  -9.7033
 0.00000    1.83     1.83   0.89993  -9.7031
