 Field[T] Tsmpl[K] Tcntr[K] Signal   Mirror[MM]
 -0.05000    1.88     1.88   0.94238  -9.7122
 0.00000    1.88     1.88   0.94146  -9.7124
 0.05000    1.88     1.88   0.93958  -9.7124
 0.10000    1.88     1.88   0.93544  -9.7126
 0.15000    1.88     1.88   0.93356  -9.7127
 0.20000    1.88     1.88   0.93108  -9.7127
 0.25000    1.88     1.88   0.92508  -9.7125
 0.30000    1.88     1.88   0.92376  -9.7119
 0.35000    1.88     1.88   0.91978  -9.7119
 0.40000    1.88     1.88   0.91734  -9.7122
 0.45000    1.88     1.88   0.91426  -9.7123
 0.50000    1.88     1.88   0.90934  -9.7124
 0.55000    1.88     1.88   0.90226  -9.7130
 0.60000    1.88     1.88   0.89822  -9.7142
 0.65000    1.88     1.88   0.89662  -9.7151
 0.70000    1.88     1.88   0.89752  -9.7159
 0.75000    1.88     1.88   0.89528  -9.7168
 0.80000    1.88     1.88   0.89532  -9.7174
 0.85000    1.88     1.88   0.89570  -9.7181
 0.90000    1.88     1.88   0.89756  -9.7183
 0.95000    1.88     1.88   0.89938  -9.7183
 1.00000    1.88     1.88   0.90068  -9.7184
 1.05000    1.88     1.88   0.90178  -9.7186
 1.10000    1.88     1.88   0.90344  -9.7188
 1.15000    1.88     1.88   0.90420  -9.7189
 1.20000    1.88     1.88   0.90460  -9.7187
 1.25000    1.88     1.88   0.90480  -9.7190
 1.30000    1.88     1.88   0.90444  -9.7188
 1.35000    1.88     1.88   0.90504  -9.7187
 1.40000    1.88     1.88   0.90506  -9.7184
 1.45000    1.88     1.88   0.90444  -9.7181
 1.50000    1.88     1.88   0.90624  -9.7182
 1.55000    1.88     1.88   0.90616  -9.7190
 1.60000    1.88     1.88   0.90668  -9.7193
 1.65000    1.88     1.88   0.90742  -9.7183
 1.70000    1.88     1.88   0.90626  -9.7186
 1.75000    1.88     1.88   0.90610  -9.7184
 1.80000    1.88     1.88   0.90650  -9.7183
 1.85000    1.88     1.88   0.90556  -9.7184
 1.90000    1.88     1.88   0.90636  -9.7184
 1.95000    1.88     1.88   0.90654  -9.7185
 2.00000    1.88     1.88   0.90712  -9.7185
 2.05000    1.88     1.88   0.90672  -9.7184
 2.10000    1.88     1.88   0.90670  -9.7182
 2.15000    1.88     1.88   0.90700  -9.7180
 2.20000    1.88     1.88   0.90808  -9.7179
 2.25000    1.88     1.88   0.90746  -9.7177
 2.30000    1.88     1.88   0.90594  -9.7176
 2.35000    1.88     1.88   0.90412  -9.7176
 2.40000    1.88     1.88   0.90354  -9.7177
 2.45000    1.88     1.88   0.90284  -9.7179
 2.50000    1.88     1.88   0.90414  -9.7182
 2.55000    1.88     1.88   0.90304  -9.7180
 2.60000    1.88     1.88   0.90362  -9.7181
 2.65000    1.88     1.88   0.90418  -9.7182
 2.70000    1.88     1.88   0.90362  -9.7181
 2.75000    1.88     1.88   0.90282  -9.7178
 2.80000    1.88     1.88   0.90442  -9.7178
 2.85000    1.88     1.88   0.90432  -9.7177
 2.90000    1.88     1.88   0.90438  -9.7178
 2.95000    1.88     1.88   0.90280  -9.7176
 3.00000    1.88     1.88   0.90316  -9.7177
 3.05000    1.88     1.88   0.90404  -9.7177
 3.10000    1.88     1.88   0.90216  -9.7176
 3.15000    1.88     1.88   0.90446  -9.7176
 3.20000    1.88     1.88   0.90338  -9.7178
 3.25000    1.88     1.88   0.90474  -9.7178
 3.30000    1.88     1.88   0.90464  -9.7176
 3.35000    1.88     1.88   0.90514  -9.7176
 3.40000    1.88     1.88   0.90314  -9.7176
 3.45000    1.88     1.88   0.90186  -9.7175
 3.50000    1.88     1.88   0.90130  -9.7175
 3.55000    1.88     1.88   0.90122  -9.7176
 3.60000    1.88     1.88   0.90138  -9.7175
 3.65000    1.88     1.88   0.90150  -9.7172
 3.70000    1.88     1.88   0.90162  -9.7173
 3.75000    1.88     1.88   0.90024  -9.7176
 3.80000    1.88     1.88   0.90132  -9.7174
 3.85000    1.88     1.88   0.90112  -9.7173
 3.90000    1.88     1.88   0.90100  -9.7174
 3.95000    1.88     1.88   0.90018  -9.7174
 4.00000    1.88     1.88   0.90022  -9.7174
 4.05000    1.88     1.88   0.89932  -9.7173
 4.10000    1.88     1.88   0.89908  -9.7173
 4.15000    1.88     1.88   0.89966  -9.7173
 4.20000    1.88     1.88   0.90096  -9.7173
 4.25000    1.88     1.88   0.89998  -9.7172
 4.30000    1.88     1.88   0.90014  -9.7174
 4.35000    1.88     1.88   0.90012  -9.7175
 4.40000    1.88     1.88   0.89728  -9.7174
 4.45000    1.88     1.88   0.89760  -9.7174
 4.50000    1.88     1.88   0.89656  -9.7173
 4.55000    1.88     1.88   0.89586  -9.7174
 4.60000    1.88     1.88   0.89480  -9.7174
 4.65000    1.88     1.88   0.89450  -9.7175
 4.70000    1.88     1.88   0.89326  -9.7175
 4.75000    1.88     1.88   0.89232  -9.7174
 4.80000    1.88     1.88   0.89272  -9.7174
 4.85000    1.88     1.88   0.89286  -9.7175
 4.90000    1.88     1.88   0.89188  -9.7175
 4.95000    1.88     1.88   0.89162  -9.7174
 5.00000    1.88     1.88   0.89152  -9.7174
 5.05000    1.88     1.88   0.89204  -9.7176
 5.10000    1.88     1.88   0.89186  -9.7175
 5.15000    1.88     1.88   0.89050  -9.7175
 5.20000    1.88     1.88   0.89048  -9.7176
 5.25000    1.88     1.88   0.89094  -9.7177
 5.30000    1.88     1.88   0.89198  -9.7174
 5.35000    1.88     1.88   0.89218  -9.7175
 5.40000    1.88     1.88   0.89304  -9.7174
 5.45000    1.88     1.88   0.89090  -9.7174
 5.50000    1.88     1.88   0.88986  -9.7173
 5.55000    1.88     1.88   0.88938  -9.7174
 5.60000    1.88     1.88   0.89008  -9.7174
 5.65000    1.88     1.88   0.88986  -9.7174
 5.70000    1.88     1.88   0.88922  -9.7175
 5.75000    1.88     1.88   0.88890  -9.7174
 5.80000    1.88     1.88   0.88866  -9.7174
 5.85000    1.88     1.88   0.88822  -9.7174
 5.90000    1.88     1.88   0.88768  -9.7175
 5.95000    1.88     1.88   0.88798  -9.7174
 6.00000    1.88     1.88   0.88786  -9.7175
 6.05000    1.88     1.88   0.88728  -9.7177
 6.10000    1.88     1.88   0.88736  -9.7177
 6.15000    1.88     1.88   0.88668  -9.7175
 6.20000    1.88     1.88   0.88666  -9.7175
 6.25000    1.88     1.88   0.88562  -9.7175
 6.30000    1.88     1.88   0.88590  -9.7176
 6.35000    1.88     1.88   0.88802  -9.7176
 6.40000    1.88     1.88   0.88802  -9.7176
 6.45000    1.88     1.88   0.88684  -9.7174
 6.50000    1.88     1.88   0.88784  -9.7175
 6.55000    1.88     1.88   0.88494  -9.7178
 6.60000    1.88     1.88   0.88460  -9.7176
 6.65000    1.88     1.88   0.88422  -9.7176
 6.70000    1.88     1.88   0.88450  -9.7175
 6.75000    1.88     1.88   0.88398  -9.7177
 6.80000    1.88     1.88   0.88354  -9.7178
 6.85000    1.88     1.88   0.88410  -9.7175
 6.90000    1.88     1.88   0.88400  -9.7174
 6.95000    1.88     1.88   0.88326  -9.7175
 7.00000    1.88     1.88   0.88350  -9.7176
 7.00000    1.88     1.88   0.88248  -9.7175
 6.95000    1.88     1.88   0.88310  -9.7176
 6.90000    1.88     1.88   0.88400  -9.7174
 6.85000    1.88     1.88   0.88420  -9.7178
 6.80000    1.88     1.88   0.88442  -9.7174
 6.75000    1.88     1.88   0.88410  -9.7174
 6.70000    1.88     1.88   0.88422  -9.7175
 6.65000    1.88     1.88   0.88504  -9.7176
 6.60000    1.88     1.88   0.88406  -9.7173
 6.55000    1.88     1.88   0.88510  -9.7173
 6.50000    1.88     1.88   0.88652  -9.7173
 6.45000    1.88     1.88   0.88586  -9.7174
 6.40000    1.88     1.88   0.88532  -9.7174
 6.35000    1.88     1.88   0.88618  -9.7174
 6.30000    1.88     1.88   0.88810  -9.7174
 6.25000    1.88     1.88   0.88694  -9.7175
 6.20000    1.88     1.88   0.88582  -9.7174
 6.15000    1.88     1.88   0.88674  -9.7176
 6.10000    1.88     1.88   0.88742  -9.7174
 6.05000    1.88     1.88   0.88986  -9.7172
 6.00000    1.88     1.88   0.88898  -9.7173
 5.95000    1.88     1.88   0.88994  -9.7174
 5.90000    1.88     1.88   0.89092  -9.7176
 5.85000    1.88     1.88   0.89092  -9.7175
 5.80000    1.88     1.88   0.89216  -9.7173
 5.75000    1.88     1.88   0.89114  -9.7174
 5.70000    1.88     1.88   0.89008  -9.7174
 5.65000    1.88     1.88   0.89002  -9.7174
 5.60000    1.88     1.88   0.88960  -9.7175
 5.55000    1.88     1.88   0.89144  -9.7174
 5.50000    1.88     1.88   0.88996  -9.7175
 5.45000    1.88     1.88   0.88926  -9.7175
 5.40000    1.88     1.88   0.88898  -9.7175
 5.35000    1.88     1.88   0.88924  -9.7175
 5.30000    1.88     1.88   0.89058  -9.7174
 5.25000    1.88     1.88   0.89164  -9.7174
 5.20000    1.88     1.88   0.89200  -9.7174
 5.15000    1.88     1.88   0.89084  -9.7174
 5.10000    1.88     1.88   0.89120  -9.7174
 5.05000    1.88     1.88   0.89072  -9.7172
 5.00000    1.88     1.88   0.89056  -9.7175
 4.95000    1.88     1.88   0.89064  -9.7176
 4.90000    1.88     1.88   0.89110  -9.7176
 4.85000    1.88     1.88   0.89338  -9.7175
 4.80000    1.88     1.88   0.89340  -9.7175
 4.75000    1.88     1.88   0.89262  -9.7177
 4.70000    1.88     1.88   0.89304  -9.7176
 4.65000    1.88     1.88   0.89322  -9.7175
 4.60000    1.88     1.88   0.89284  -9.7175
 4.55000    1.88     1.88   0.89348  -9.7176
 4.50000    1.88     1.88   0.89542  -9.7176
 4.45000    1.88     1.88   0.89592  -9.7174
 4.40000    1.88     1.88   0.89444  -9.7175
 4.35000    1.88     1.88   0.89424  -9.7175
 4.30000    1.88     1.88   0.89416  -9.7175
 4.25000    1.88     1.88   0.89410  -9.7174
 4.20000    1.88     1.88   0.89468  -9.7176
 4.15000    1.88     1.88   0.89502  -9.7174
 4.10000    1.88     1.88   0.89804  -9.7174
 4.05000    1.88     1.88   0.89750  -9.7176
 4.00000    1.88     1.88   0.89562  -9.7174
 3.95000    1.88     1.88   0.89676  -9.7173
 3.90000    1.88     1.88   0.89662  -9.7174
 3.85000    1.88     1.88   0.89700  -9.7174
 3.80000    1.88     1.88   0.89698  -9.7174
 3.75000    1.88     1.88   0.89730  -9.7174
 3.70000    1.88     1.88   0.89704  -9.7173
 3.65000    1.88     1.88   0.89868  -9.7175
 3.60000    1.88     1.88   0.90014  -9.7176
 3.55000    1.88     1.88   0.89888  -9.7176
 3.50000    1.88     1.88   0.89780  -9.7174
 3.45000    1.88     1.88   0.89806  -9.7174
 3.40000    1.88     1.88   0.89820  -9.7174
 3.35000    1.88     1.88   0.89826  -9.7173
 3.30000    1.88     1.88   0.89890  -9.7174
 3.25000    1.88     1.88   0.89916  -9.7173
 3.20000    1.88     1.88   0.89984  -9.7174
 3.15000    1.88     1.88   0.90086  -9.7172
 3.10000    1.88     1.88   0.90042  -9.7172
 3.05000    1.88     1.88   0.90030  -9.7174
 3.00000    1.88     1.88   0.89986  -9.7173
 2.95000    1.88     1.88   0.89988  -9.7173
 2.90000    1.88     1.88   0.89972  -9.7172
 2.85000    1.88     1.88   0.90048  -9.7169
 2.80000    1.88     1.88   0.90092  -9.7171
 2.75000    1.88     1.88   0.90072  -9.7172
 2.70000    1.88     1.88   0.90042  -9.7172
 2.65000    1.88     1.88   0.90274  -9.7171
 2.60000    1.88     1.88   0.90306  -9.7174
 2.55000    1.88     1.88   0.90276  -9.7172
 2.50000    1.88     1.88   0.90204  -9.7173
 2.45000    1.88     1.88   0.90184  -9.7172
 2.40000    1.88     1.88   0.90186  -9.7173
 2.35000    1.88     1.88   0.90138  -9.7172
 2.30000    1.88     1.88   0.90172  -9.7172
 2.25000    1.88     1.88   0.90224  -9.7174
 2.20000    1.88     1.88   0.90148  -9.7173
 2.15000    1.88     1.88   0.90212  -9.7174
 2.10000    1.88     1.88   0.90258  -9.7175
 2.05000    1.88     1.88   0.90212  -9.7176
 2.00000    1.88     1.88   0.90122  -9.7176
 1.95000    1.88     1.88   0.90316  -9.7177
 1.90000    1.88     1.88   0.90366  -9.7175
 1.85000    1.88     1.88   0.90358  -9.7175
 1.80000    1.88     1.88   0.90214  -9.7176
 1.75000    1.88     1.88   0.90184  -9.7174
 1.70000    1.88     1.88   0.90126  -9.7176
 1.65000    1.88     1.88   0.90144  -9.7175
 1.60000    1.88     1.88   0.90168  -9.7176
 1.55000    1.88     1.88   0.90068  -9.7177
 1.50000    1.88     1.88   0.90096  -9.7176
 1.45000    1.88     1.88   0.89984  -9.7177
 1.40000    1.88     1.88   0.89884  -9.7176
 1.35000    1.88     1.88   0.89942  -9.7177
 1.30000    1.88     1.88   0.89880  -9.7178
 1.25000    1.88     1.88   0.89742  -9.7178
 1.20000    1.88     1.88   0.89760  -9.7178
 1.15000    1.88     1.88   0.89552  -9.7179
 1.10000    1.88     1.88   0.89562  -9.7180
 1.05000    1.88     1.88   0.89354  -9.7179
 1.00000    1.88     1.88   0.89140  -9.7179
 0.95000    1.88     1.88   0.88938  -9.7175
 0.90000    1.88     1.88   0.88692  -9.7174
 0.85000    1.88     1.88   0.88368  -9.7170
 0.80000    1.88     1.88   0.88052  -9.7164
 0.75000    1.88     1.88   0.87898  -9.7159
 0.70000    1.88     1.88   0.87750  -9.7152
 0.65000    1.88     1.88   0.87642  -9.7144
 0.60000    1.88     1.88   0.87492  -9.7137
 0.55000    1.88     1.88   0.87766  -9.7127
 0.50000    1.88     1.88   0.88200  -9.7119
 0.45000    1.88     1.88   0.88614  -9.7117
 0.40000    1.88     1.88   0.88956  -9.7117
 0.35000    1.88     1.88   0.89224  -9.7118
 0.30000    1.88     1.88   0.89330  -9.7116
 0.25000    1.88     1.88   0.89458  -9.7116
 0.20000    1.88     1.88   0.89628  -9.7114
 0.15000    1.88     1.88   0.89646  -9.7114
 0.10000    1.88     1.88   0.89614  -9.7116
 0.05000    1.88     1.88   0.89750  -9.7115
 -0.00000    1.88     1.88   0.89786  -9.7115
 -0.05000    1.88     1.88   0.89924  -9.7115
 -0.10000    1.88     1.88   0.89780  -9.7115
 -0.15000    1.88     1.88   0.89922  -9.7116
 -0.20000    1.88     1.88   0.89744  -9.7115
 -0.25000    1.88     1.88   0.89816  -9.7114
 -0.30000    1.88     1.88   0.89718  -9.7114
 -0.35000    1.88     1.88   0.89684  -9.7112
 -0.40000    1.88     1.88   0.89560  -9.7111
 -0.45000    1.88     1.88   0.89192  -9.7111
 -0.50000    1.88     1.88   0.88830  -9.7113
 -0.55000    1.88     1.88   0.88406  -9.7121
 -0.60000    1.88     1.88   0.88152  -9.7129
 -0.65000    1.88     1.88   0.88154  -9.7139
 -0.70000    1.88     1.88   0.88310  -9.7145
 -0.75000    1.88     1.88   0.88566  -9.7152
 -0.80000    1.88     1.88   0.88718  -9.7160
 -0.85000    1.88     1.88   0.89008  -9.7164
 -0.90000    1.88     1.88   0.89332  -9.7166
 -0.95000    1.88     1.88   0.89588  -9.7169
 -1.00000    1.88     1.88   0.89914  -9.7172
 -1.05000    1.88     1.88   0.90190  -9.7174
 -1.10000    1.88     1.88   0.90394  -9.7174
 -1.15000    1.88     1.88   0.90644  -9.7173
 -1.20000    1.88     1.88   0.90796  -9.7168
 -1.25000    1.88     1.88   0.91026  -9.7169
 -1.30000    1.88     1.88   0.91030  -9.7168
 -1.35000    1.88     1.88   0.91246  -9.7166
 -1.40000    1.88     1.88   0.91238  -9.7169
 -1.45000    1.88     1.88   0.91432  -9.7168
 -1.50000    1.88     1.88   0.91512  -9.7167
 -1.55000    1.88     1.88   0.91580  -9.7165
 -1.60000    1.88     1.88   0.91700  -9.7164
 -1.65000    1.88     1.88   0.91738  -9.7163
 -1.70000    1.88     1.88   0.91810  -9.7164
 -1.75000    1.88     1.88   0.91890  -9.7164
 -1.80000    1.88     1.88   0.92042  -9.7163
 -1.85000    1.88     1.88   0.92068  -9.7164
 -1.90000    1.88     1.88   0.92104  -9.7163
 -1.95000    1.88     1.88   0.92168  -9.7162
 -2.00000    1.88     1.88   0.92128  -9.7163
 -2.05000    1.88     1.88   0.92302  -9.7162
 -2.10000    1.88     1.88   0.92434  -9.7159
 -2.15000    1.88     1.88   0.92342  -9.7161
 -2.20000    1.88     1.88   0.92428  -9.7160
 -2.25000    1.88     1.88   0.92476  -9.7160
 -2.30000    1.88     1.88   0.92534  -9.7162
 -2.35000    1.88     1.88   0.92644  -9.7162
 -2.40000    1.88     1.88   0.92546  -9.7163
 -2.45000    1.88     1.88   0.92706  -9.7161
 -2.50000    1.88     1.88   0.92834  -9.7162
 -2.55000    1.88     1.88   0.92898  -9.7161
 -2.60000    1.88     1.88   0.92878  -9.7162
 -2.65000    1.88     1.88   0.92810  -9.7162
 -2.70000    1.88     1.88   0.92800  -9.7159
 -2.75000    1.88     1.88   0.92810  -9.7159
 -2.80000    1.88     1.88   0.92746  -9.7158
 -2.85000    1.88     1.88   0.92856  -9.7162
 -2.90000    1.88     1.88   0.92852  -9.7162
 -2.95000    1.88     1.88   0.92896  -9.7161
 -3.00000    1.88     1.88   0.93078  -9.7158
 -3.05000    1.88     1.88   0.93084  -9.7159
 -3.10000    1.88     1.88   0.93080  -9.7159
 -3.15000    1.88     1.88   0.93110  -9.7159
 -3.20000    1.88     1.88   0.93072  -9.7159
 -3.25000    1.88     1.88   0.93126  -9.7156
 -3.30000    1.88     1.88   0.93016  -9.7157
 -3.35000    1.88     1.88   0.93092  -9.7158
 -3.40000    1.88     1.88   0.93170  -9.7158
 -3.45000    1.88     1.88   0.93244  -9.7157
 -3.50000    1.88     1.88   0.93334  -9.7158
 -3.55000    1.88     1.88   0.93360  -9.7157
 -3.60000    1.88     1.88   0.93422  -9.7157
 -3.65000    1.88     1.88   0.93544  -9.7158
 -3.70000    1.88     1.88   0.93440  -9.7158
 -3.75000    1.88     1.88   0.93402  -9.7158
 -3.80000    1.88     1.88   0.93432  -9.7157
 -3.85000    1.88     1.88   0.93450  -9.7158
 -3.90000    1.88     1.88   0.93360  -9.7159
 -3.95000    1.88     1.88   0.93458  -9.7160
 -4.00000    1.88     1.88   0.93414  -9.7159
 -4.05000    1.88     1.88   0.93528  -9.7160
 -4.10000    1.88     1.88   0.93662  -9.7158
 -4.15000    1.88     1.88   0.93766  -9.7157
 -4.20000    1.88     1.88   0.93800  -9.7158
 -4.25000    1.88     1.88   0.93836  -9.7160
 -4.30000    1.88     1.88   0.93736  -9.7160
 -4.35000    1.88     1.88   0.93728  -9.7158
 -4.40000    1.88     1.88   0.93750  -9.7161
 -4.45000    1.88     1.88   0.93688  -9.7160
 -4.50000    1.88     1.88   0.93714  -9.7161
 -4.55000    1.88     1.88   0.93886  -9.7160
 -4.60000    1.88     1.88   0.93846  -9.7157
 -4.65000    1.88     1.88   0.93886  -9.7157
 -4.70000    1.88     1.88   0.93956  -9.7158
 -4.75000    1.88     1.88   0.93920  -9.7159
 -4.80000    1.88     1.88   0.93916  -9.7159
 -4.85000    1.88     1.88   0.94056  -9.7158
 -4.90000    1.88     1.88   0.94154  -9.7157
 -4.95000    1.88     1.88   0.94178  -9.7158
 -5.00000    1.88     1.88   0.94086  -9.7159
 -5.05000    1.88     1.88   0.94052  -9.7159
 -5.10000    1.88     1.88   0.94052  -9.7158
 -5.15000    1.88     1.88   0.94014  -9.7158
 -5.20000    1.88     1.88   0.93994  -9.7159
 -5.25000    1.88     1.88   0.94130  -9.7158
 -5.30000    1.88     1.88   0.94180  -9.7156
 -5.35000    1.88     1.88   0.94086  -9.7157
 -5.40000    1.88     1.88   0.94172  -9.7154
 -5.45000    1.88     1.88   0.94152  -9.7157
 -5.50000    1.88     1.88   0.94214  -9.7158
 -5.55000    1.88     1.88   0.94266  -9.7158
 -5.60000    1.88     1.88   0.94186  -9.7157
 -5.65000    1.88     1.88   0.94254  -9.7157
 -5.70000    1.88     1.88   0.94332  -9.7156
 -5.75000    1.88     1.88   0.94482  -9.7156
 -5.80000    1.88     1.88   0.94594  -9.7156
 -5.85000    1.88     1.88   0.94450  -9.7158
 -5.90000    1.88     1.88   0.94376  -9.7157
 -5.95000    1.88     1.88   0.94406  -9.7156
 -6.00000    1.88     1.88   0.94464  -9.7155
 -6.05000    1.88     1.88   0.94462  -9.7156
 -6.10000    1.88     1.88   0.94498  -9.7156
 -6.15000    1.88     1.88   0.94476  -9.7156
 -6.20000    1.88     1.88   0.94536  -9.7156
 -6.25000    1.88     1.88   0.94606  -9.7157
 -6.30000    1.88     1.88   0.94610  -9.7157
 -6.35000    1.88     1.88   0.94608  -9.7160
 -6.40000    1.88     1.88   0.94666  -9.7157
 -6.45000    1.88     1.88   0.94730  -9.7156
 -6.50000    1.88     1.88   0.94730  -9.7157
 -6.55000    1.88     1.88   0.94748  -9.7156
 -6.60000    1.88     1.88   0.94766  -9.7156
 -6.65000    1.88     1.88   0.95014  -9.7155
 -6.70000    1.88     1.88   0.94994  -9.7155
 -6.75000    1.88     1.88   0.95070  -9.7155
 -6.80000    1.88     1.88   0.95082  -9.7157
 -6.85000    1.88     1.88   0.95186  -9.7156
 -6.90000    1.88     1.88   0.95182  -9.7156
 -6.95000    1.88     1.88   0.95240  -9.7157
 -7.00000    1.88     1.88   0.95202  -9.7155
 -7.00000    1.88     1.88   0.95180  -9.7156
 -6.95000    1.88     1.88   0.95094  -9.7156
 -6.90000    1.88     1.88   0.95160  -9.7158
 -6.85000    1.88     1.88   0.95134  -9.7157
 -6.80000    1.88     1.88   0.94892  -9.7156
 -6.75000    1.88     1.88   0.94798  -9.7156
 -6.70000    1.88     1.88   0.94814  -9.7157
 -6.65000    1.88     1.88   0.94884  -9.7157
 -6.60000    1.88     1.88   0.94726  -9.7155
 -6.55000    1.88     1.88   0.94684  -9.7156
 -6.50000    1.88     1.88   0.94644  -9.7156
 -6.45000    1.88     1.88   0.94672  -9.7158
 -6.40000    1.88     1.88   0.94692  -9.7156
 -6.35000    1.88     1.88   0.94618  -9.7156
 -6.30000    1.88     1.88   0.94596  -9.7157
 -6.25000    1.88     1.88   0.94636  -9.7156
 -6.20000    1.88     1.88   0.94632  -9.7157
 -6.15000    1.88     1.88   0.94552  -9.7156
 -6.10000    1.88     1.88   0.94488  -9.7155
 -6.05000    1.88     1.88   0.94440  -9.7155
 -6.00000    1.88     1.88   0.94494  -9.7155
 -5.95000    1.88     1.88   0.94460  -9.7153
 -5.90000    1.88     1.88   0.94492  -9.7155
 -5.85000    1.88     1.88   0.94470  -9.7156
 -5.80000    1.88     1.88   0.94378  -9.7154
 -5.75000    1.88     1.88   0.94434  -9.7155
 -5.70000    1.88     1.88   0.94454  -9.7154
 -5.65000    1.88     1.88   0.94434  -9.7156
 -5.60000    1.88     1.88   0.94322  -9.7155
 -5.55000    1.88     1.88   0.94370  -9.7154
 -5.50000    1.88     1.88   0.94312  -9.7155
 -5.45000    1.88     1.88   0.94314  -9.7153
 -5.40000    1.88     1.88   0.94242  -9.7154
 -5.35000    1.88     1.88   0.94218  -9.7152
 -5.30000    1.88     1.88   0.94110  -9.7153
 -5.25000    1.88     1.88   0.94136  -9.7152
 -5.20000    1.88     1.88   0.94126  -9.7154
 -5.15000    1.88     1.88   0.94122  -9.7156
 -5.10000    1.88     1.88   0.94124  -9.7156
 -5.05000    1.88     1.88   0.93962  -9.7154
 -5.00000    1.88     1.88   0.94076  -9.7154
 -4.95000    1.88     1.88   0.94114  -9.7156
 -4.90000    1.88     1.88   0.94050  -9.7157
 -4.85000    1.88     1.88   0.94020  -9.7158
 -4.80000    1.88     1.88   0.93944  -9.7158
 -4.75000    1.88     1.88   0.93946  -9.7158
 -4.70000    1.88     1.88   0.93958  -9.7156
 -4.65000    1.88     1.88   0.93878  -9.7156
 -4.60000    1.88     1.88   0.93830  -9.7156
 -4.55000    1.88     1.88   0.93818  -9.7157
 -4.50000    1.88     1.88   0.93788  -9.7156
 -4.45000    1.88     1.88   0.93774  -9.7156
 -4.40000    1.88     1.88   0.93602  -9.7158
 -4.35000    1.88     1.88   0.93768  -9.7159
 -4.30000    1.88     1.88   0.93726  -9.7160
 -4.25000    1.88     1.88   0.93676  -9.7158
 -4.20000    1.88     1.88   0.93746  -9.7152
 -4.15000    1.88     1.88   0.93610  -9.7157
 -4.10000    1.88     1.88   0.93618  -9.7155
 -4.05000    1.88     1.88   0.93548  -9.7157
 -4.00000    1.88     1.88   0.93656  -9.7160
 -3.95000    1.88     1.88   0.93668  -9.7157
 -3.90000    1.88     1.88   0.93502  -9.7159
 -3.85000    1.88     1.88   0.93522  -9.7164
 -3.80000    1.88     1.88   0.93442  -9.7157
 -3.75000    1.88     1.88   0.93502  -9.7159
 -3.70000    1.88     1.88   0.93492  -9.7160
 -3.65000    1.88     1.88   0.93568  -9.7161
 -3.60000    1.88     1.88   0.93550  -9.7161
 -3.55000    1.88     1.88   0.93440  -9.7162
 -3.50000    1.88     1.88   0.93344  -9.7161
 -3.45000    1.88     1.88   0.93308  -9.7162
 -3.40000    1.88     1.88   0.93412  -9.7163
 -3.35000    1.88     1.88   0.93346  -9.7161
 -3.30000    1.88     1.88   0.93226  -9.7162
 -3.25000    1.88     1.88   0.93224  -9.7163
 -3.20000    1.88     1.88   0.93130  -9.7162
 -3.15000    1.88     1.88   0.92976  -9.7155
 -3.10000    1.88     1.88   0.93022  -9.7161
 -3.05000    1.88     1.88   0.93074  -9.7158
 -3.00000    1.88     1.88   0.93208  -9.7169
 -2.95000    1.88     1.88   0.93124  -9.7168
 -2.90000    1.88     1.88   0.93064  -9.7163
 -2.85000    1.88     1.88   0.92840  -9.7168
 -2.80000    1.88     1.88   0.92994  -9.7164
 -2.75000    1.88     1.88   0.92982  -9.7159
 -2.70000    1.88     1.88   0.92744  -9.7161
 -2.65000    1.88     1.88   0.93082  -9.7162
 -2.60000    1.88     1.88   0.93054  -9.7162
 -2.55000    1.88     1.88   0.92920  -9.7165
 -2.50000    1.88     1.88   0.92816  -9.7166
 -2.45000    1.88     1.88   0.92738  -9.7167
 -2.40000    1.88     1.88   0.92740  -9.7168
 -2.35000    1.88     1.88   0.92680  -9.7166
 -2.30000    1.88     1.88   0.92660  -9.7169
 -2.25000    1.88     1.88   0.92620  -9.7169
 -2.20000    1.88     1.88   0.92500  -9.7167
 -2.15000    1.88     1.88   0.92488  -9.7165
 -2.10000    1.88     1.88   0.92438  -9.7167
 -2.05000    1.88     1.88   0.92416  -9.7166
 -2.00000    1.88     1.88   0.92280  -9.7169
 -1.95000    1.88     1.88   0.92418  -9.7168
 -1.90000    1.88     1.88   0.92452  -9.7168
 -1.85000    1.88     1.88   0.92376  -9.7166
 -1.80000    1.88     1.88   0.92064  -9.7162
 -1.75000    1.88     1.88   0.92158  -9.7166
 -1.70000    1.88     1.88   0.92108  -9.7167
 -1.65000    1.88     1.88   0.91970  -9.7166
 -1.60000    1.88     1.88   0.92030  -9.7165
 -1.55000    1.88     1.88   0.91948  -9.7164
 -1.50000    1.88     1.88   0.91880  -9.7165
 -1.45000    1.88     1.88   0.91668  -9.7154
 -1.40000    1.88     1.88   0.91668  -9.7168
 -1.35000    1.88     1.88   0.91708  -9.7170
 -1.30000    1.88     1.88   0.91632  -9.7172
 -1.25000    1.88     1.88   0.91358  -9.7165
 -1.20000    1.88     1.88   0.91310  -9.7164
 -1.15000    1.88     1.88   0.91144  -9.7165
 -1.10000    1.88     1.88   0.91028  -9.7170
 -1.05000    1.88     1.88   0.90848  -9.7168
 -1.00000    1.88     1.88   0.90544  -9.7168
 -0.95000    1.88     1.88   0.90110  -9.7172
 -0.90000    1.88     1.88   0.89800  -9.7167
 -0.85000    1.88     1.88   0.89378  -9.7162
 -0.80000    1.88     1.88   0.89128  -9.7159
 -0.75000    1.88     1.88   0.88780  -9.7152
 -0.70000    1.88     1.88   0.88578  -9.7145
 -0.65000    1.88     1.88   0.88498  -9.7140
 -0.60000    1.88     1.88   0.88520  -9.7128
 -0.55000    1.88     1.88   0.88602  -9.7116
 -0.50000    1.88     1.88   0.89016  -9.7108
 -0.45000    1.88     1.88   0.89448  -9.7110
 -0.40000    1.88     1.88   0.89754  -9.7108
 -0.35000    1.88     1.88   0.89954  -9.7108
 -0.30000    1.88     1.88   0.90038  -9.7109
 -0.25000    1.88     1.88   0.90216  -9.7110
 -0.20000    1.88     1.88   0.90242  -9.7108
 -0.15000    1.88     1.88   0.90306  -9.7106
 -0.10000    1.88     1.88   0.90180  -9.7105
 -0.05000    1.88     1.88   0.90102  -9.7106
 0.00000    1.88     1.88   0.90102  -9.7107
