 Field[T] Tsmpl[K] Tcntr[K] Signal   Mirror[MM]
 0.00000    1.84     1.84   0.38952  -9.6272
 0.05000    1.84     1.84   0.39006  -9.6272
 0.10000    1.84     1.84   0.39068  -9.6272
 0.15000    1.84     1.84   0.39129  -9.6273
 0.20000    1.84     1.84   0.39205  -9.6276
 0.25000    1.84     1.84   0.39218  -9.6277
 0.30000    1.84     1.84   0.39270  -9.6280
 0.35000    1.84     1.84   0.39297  -9.6280
 0.40000    1.84     1.84   0.39346  -9.6281
 0.45000    1.84     1.84   0.39376  -9.6282
 0.50000    1.84     1.84   0.39396  -9.6285
 0.55000    1.84     1.84   0.39400  -9.6285
 0.60000    1.84     1.84   0.39379  -9.6288
 0.65000    1.84     1.84   0.39381  -9.6292
 0.70000    1.84     1.84   0.39414  -9.6299
 0.75000    1.84     1.84   0.39465  -9.6307
 0.80000    1.84     1.84   0.39543  -9.6313
 0.85000    1.84     1.84   0.39619  -9.6317
 0.90000    1.84     1.84   0.39710  -9.6319
 0.95000    1.84     1.84   0.39797  -9.6320
 1.00000    1.84     1.84   0.39858  -9.6323
 1.05000    1.84     1.84   0.39950  -9.6323
 1.10000    1.84     1.84   0.40016  -9.6321
 1.15000    1.84     1.84   0.40072  -9.6319
 1.20000    1.84     1.84   0.40139  -9.6318
 1.25000    1.84     1.84   0.40184  -9.6316
 1.30000    1.84     1.84   0.40235  -9.6316
 1.35000    1.84     1.84   0.40269  -9.6316
 1.40000    1.84     1.84   0.40292  -9.6317
 1.45000    1.84     1.84   0.40313  -9.6315
 1.50000    1.84     1.84   0.40330  -9.6313
 1.55000    1.84     1.84   0.40357  -9.6315
 1.60000    1.84     1.84   0.40365  -9.6312
 1.65000    1.84     1.84   0.40383  -9.6309
 1.70000    1.84     1.84   0.40407  -9.6311
 1.75000    1.84     1.84   0.40407  -9.6313
 1.80000    1.84     1.84   0.40420  -9.6311
 1.85000    1.84     1.84   0.40434  -9.6310
 1.90000    1.84     1.84   0.40466  -9.6310
 1.95000    1.84     1.84   0.40469  -9.6308
 2.00000    1.84     1.84   0.40495  -9.6306
 2.05000    1.84     1.84   0.40493  -9.6308
 2.10000    1.84     1.84   0.40491  -9.6307
 2.15000    1.84     1.84   0.40482  -9.6310
 2.20000    1.84     1.84   0.40486  -9.6306
 2.25000    1.84     1.84   0.40510  -9.6306
 2.30000    1.84     1.84   0.40496  -9.6308
 2.35000    1.84     1.84   0.40520  -9.6307
 2.40000    1.84     1.84   0.40502  -9.6309
 2.45000    1.84     1.84   0.40503  -9.6311
 2.50000    1.84     1.84   0.40508  -9.6307
 2.55000    1.84     1.84   0.40524  -9.6308
 2.60000    1.84     1.84   0.40525  -9.6307
 2.65000    1.84     1.84   0.40516  -9.6307
 2.70000    1.84     1.84   0.40518  -9.6307
 2.75000    1.84     1.84   0.40528  -9.6306
 2.80000    1.84     1.84   0.40553  -9.6304
 2.85000    1.84     1.84   0.40545  -9.6304
 2.90000    1.84     1.84   0.40563  -9.6305
 2.95000    1.84     1.84   0.40536  -9.6307
 3.00000    1.84     1.84   0.40558  -9.6309
 3.00000    1.84     1.84   0.40570  -9.6310
 2.95000    1.84     1.84   0.40572  -9.6308
 2.90000    1.84     1.84   0.40579  -9.6309
 2.85000    1.84     1.84   0.40578  -9.6309
 2.80000    1.84     1.84   0.40592  -9.6310
 2.75000    1.84     1.84   0.40603  -9.6311
 2.70000    1.84     1.84   0.40630  -9.6310
 2.65000    1.84     1.84   0.40635  -9.6310
 2.60000    1.84     1.84   0.40618  -9.6313
 2.55000    1.84     1.84   0.40634  -9.6316
 2.50000    1.84     1.84   0.40644  -9.6318
 2.45000    1.84     1.84   0.40676  -9.6317
 2.40000    1.84     1.84   0.40684  -9.6315
 2.35000    1.84     1.84   0.40702  -9.6316
 2.30000    1.84     1.84   0.40720  -9.6314
 2.25000    1.84     1.84   0.40695  -9.6316
 2.20000    1.84     1.84   0.40696  -9.6317
 2.15000    1.84     1.84   0.40707  -9.6318
 2.10000    1.84     1.84   0.40718  -9.6318
 2.05000    1.84     1.84   0.40743  -9.6318
 2.00000    1.84     1.84   0.40750  -9.6319
 1.95000    1.84     1.84   0.40759  -9.6319
 1.90000    1.84     1.84   0.40770  -9.6320
 1.85000    1.84     1.84   0.40810  -9.6319
 1.80000    1.84     1.84   0.40797  -9.6321
 1.75000    1.84     1.84   0.40808  -9.6324
 1.70000    1.84     1.84   0.40812  -9.6323
 1.65000    1.84     1.84   0.40821  -9.6324
 1.60000    1.84     1.84   0.40812  -9.6326
 1.55000    1.84     1.84   0.40837  -9.6325
 1.50000    1.84     1.84   0.40844  -9.6326
 1.45000    1.84     1.84   0.40839  -9.6328
 1.40000    1.84     1.84   0.40770  -9.6331
 1.35000    1.84     1.84   0.40784  -9.6331
 1.30000    1.84     1.84   0.40772  -9.6332
 1.25000    1.84     1.84   0.40778  -9.6334
 1.20000    1.84     1.84   0.40760  -9.6336
 1.15000    1.84     1.84   0.40742  -9.6337
 1.10000    1.84     1.84   0.40745  -9.6339
 1.05000    1.84     1.84   0.40725  -9.6336
 1.00000    1.84     1.84   0.40685  -9.6337
 0.95000    1.84     1.84   0.40624  -9.6338
 0.90000    1.84     1.84   0.40575  -9.6337
 0.85000    1.84     1.84   0.40527  -9.6333
 0.80000    1.84     1.84   0.40485  -9.6328
 0.75000    1.84     1.84   0.40443  -9.6327
 0.70000    1.84     1.84   0.40405  -9.6320
 0.65000    1.84     1.84   0.40410  -9.6316
 0.60000    1.84     1.84   0.40468  -9.6314
 0.55000    1.84     1.84   0.40531  -9.6311
 0.50000    1.84     1.84   0.40602  -9.6307
 0.45000    1.84     1.84   0.40629  -9.6304
 0.40000    1.84     1.84   0.40668  -9.6305
 0.35000    1.84     1.84   0.40689  -9.6304
 0.30000    1.84     1.84   0.40723  -9.6303
 0.25000    1.84     1.84   0.40749  -9.6304
 0.20000    1.84     1.84   0.40752  -9.6303
 0.15000    1.84     1.84   0.40770  -9.6304
 0.10000    1.84     1.84   0.40776  -9.6300
 0.05000    1.84     1.84   0.40793  -9.6300
 -0.00000    1.84     1.84   0.40821  -9.6298
