 Field[T] Tsmpl[K] Tcntr[K] Signal   Mirror[MM]
 0.00000    1.87     1.87   0.77514  -9.7492
 0.05000    1.87     1.87   0.77838  -9.7494
 0.10000    1.87     1.87   0.78130  -9.7497
 0.15000    1.87     1.87   0.78365  -9.7497
 0.20000    1.87     1.87   0.78668  -9.7497
 0.25000    1.87     1.87   0.78947  -9.7499
 0.30000    1.87     1.87   0.79133  -9.7502
 0.35000    1.87     1.87   0.79340  -9.7502
 0.40000    1.87     1.87   0.79542  -9.7502
 0.45000    1.87     1.87   0.79674  -9.7503
 0.50000    1.87     1.87   0.79844  -9.7504
 0.55000    1.87     1.87   0.79936  -9.7502
 0.60000    1.87     1.87   0.80101  -9.7506
 0.65000    1.87     1.87   0.80120  -9.7506
 0.70000    1.87     1.87   0.80083  -9.7505
 0.75000    1.87     1.87   0.80067  -9.7507
 0.80000    1.87     1.87   0.79986  -9.7510
 0.85000    1.87     1.87   0.79888  -9.7515
 0.90000    1.87     1.87   0.79855  -9.7520
 0.95000    1.87     1.87   0.79989  -9.7526
 1.00000    1.87     1.87   0.80203  -9.7533
 1.05000    1.87     1.87   0.80462  -9.7539
 1.10000    1.87     1.87   0.80722  -9.7543
 1.15000    1.87     1.87   0.80962  -9.7547
 1.20000    1.87     1.87   0.81221  -9.7549
 1.25000    1.87     1.87   0.81392  -9.7550
 1.30000    1.87     1.87   0.81635  -9.7552
 1.35000    1.87     1.87   0.81941  -9.7554
 1.40000    1.87     1.87   0.82197  -9.7555
 1.45000    1.87     1.87   0.82360  -9.7553
 1.50000    1.87     1.87   0.82514  -9.7554
 1.55000    1.87     1.87   0.82677  -9.7554
 1.60000    1.87     1.87   0.82790  -9.7552
 1.65000    1.87     1.87   0.82912  -9.7554
 1.70000    1.87     1.87   0.83020  -9.7551
 1.75000    1.87     1.87   0.83096  -9.7551
 1.80000    1.87     1.87   0.83165  -9.7551
 1.85000    1.87     1.87   0.83248  -9.7551
 1.90000    1.87     1.87   0.83372  -9.7552
 1.95000    1.87     1.87   0.83510  -9.7551
 2.00000    1.87     1.87   0.83542  -9.7550
 2.05000    1.87     1.87   0.83505  -9.7548
 2.10000    1.87     1.87   0.83526  -9.7548
 2.15000    1.87     1.87   0.83597  -9.7549
 2.20000    1.87     1.87   0.83574  -9.7549
 2.25000    1.87     1.87   0.83625  -9.7547
 2.30000    1.87     1.87   0.83616  -9.7547
 2.35000    1.87     1.87   0.83735  -9.7550
 2.40000    1.87     1.87   0.83740  -9.7549
 2.45000    1.87     1.87   0.83770  -9.7549
 2.50000    1.87     1.87   0.83797  -9.7547
 2.55000    1.87     1.87   0.83818  -9.7548
 2.60000    1.87     1.87   0.83871  -9.7548
 2.65000    1.87     1.87   0.83850  -9.7539
 2.70000    1.87     1.87   0.83912  -9.7548
 2.75000    1.87     1.87   0.83947  -9.7548
 2.80000    1.87     1.87   0.84129  -9.7549
 2.85000    1.87     1.87   0.84124  -9.7545
 2.90000    1.87     1.87   0.84083  -9.7544
 2.95000    1.87     1.87   0.84000  -9.7546
 3.00000    1.87     1.87   0.84009  -9.7548
 3.05000    1.87     1.87   0.83963  -9.7546
 3.10000    1.87     1.87   0.83963  -9.7546
 3.15000    1.87     1.87   0.83952  -9.7549
 3.20000    1.87     1.87   0.84053  -9.7548
 3.25000    1.87     1.87   0.84000  -9.7549
 3.30000    1.87     1.87   0.83968  -9.7549
 3.35000    1.87     1.87   0.83942  -9.7547
 3.40000    1.87     1.87   0.83995  -9.7550
 3.45000    1.87     1.87   0.84122  -9.7550
 3.50000    1.87     1.87   0.84014  -9.7549
 3.55000    1.87     1.87   0.83906  -9.7547
 3.60000    1.87     1.87   0.83919  -9.7548
 3.65000    1.87     1.87   0.83931  -9.7549
 3.70000    1.87     1.87   0.83853  -9.7547
 3.75000    1.87     1.87   0.83903  -9.7546
 3.80000    1.87     1.87   0.83915  -9.7548
 3.85000    1.87     1.87   0.83906  -9.7543
 3.90000    1.87     1.87   0.83947  -9.7547
 3.95000    1.87     1.87   0.83961  -9.7545
 4.00000    1.87     1.87   0.83952  -9.7544
 4.05000    1.87     1.87   0.83908  -9.7546
 4.10000    1.87     1.87   0.83864  -9.7544
 4.15000    1.87     1.87   0.83899  -9.7545
 4.20000    1.87     1.87   0.83899  -9.7543
 4.25000    1.87     1.87   0.83885  -9.7544
 4.30000    1.87     1.87   0.83848  -9.7543
 4.35000    1.87     1.87   0.83781  -9.7544
 4.40000    1.87     1.87   0.83758  -9.7546
 4.45000    1.87     1.87   0.83735  -9.7545
 4.50000    1.87     1.87   0.83761  -9.7542
 4.55000    1.87     1.87   0.83830  -9.7544
 4.60000    1.87     1.87   0.83800  -9.7543
 4.65000    1.87     1.87   0.83781  -9.7546
 4.70000    1.87     1.87   0.83871  -9.7544
 4.75000    1.87     1.87   0.83747  -9.7545
 4.80000    1.87     1.87   0.83738  -9.7542
 4.85000    1.87     1.87   0.83699  -9.7541
 4.90000    1.87     1.87   0.83676  -9.7544
 4.95000    1.87     1.87   0.83650  -9.7544
 5.00000    1.87     1.87   0.83682  -9.7543
 5.05000    1.87     1.87   0.83646  -9.7541
 5.10000    1.87     1.87   0.83666  -9.7541
 5.15000    1.87     1.87   0.83687  -9.7541
 5.20000    1.87     1.87   0.83659  -9.7541
 5.25000    1.87     1.87   0.83676  -9.7541
 5.30000    1.87     1.87   0.83641  -9.7542
 5.35000    1.87     1.87   0.83625  -9.7540
 5.40000    1.87     1.87   0.83650  -9.7539
 5.45000    1.87     1.87   0.83611  -9.7540
 5.50000    1.87     1.87   0.83632  -9.7540
 5.55000    1.87     1.87   0.83618  -9.7542
 5.60000    1.87     1.87   0.83549  -9.7541
 5.65000    1.87     1.87   0.83494  -9.7542
 5.70000    1.87     1.87   0.83365  -9.7541
 5.75000    1.87     1.87   0.83250  -9.7539
 5.80000    1.87     1.87   0.83439  -9.7539
 5.85000    1.87     1.87   0.83469  -9.7544
 5.90000    1.87     1.87   0.83395  -9.7541
 5.95000    1.87     1.87   0.83489  -9.7542
 6.00000    1.87     1.87   0.83455  -9.7541
 6.05000    1.87     1.87   0.83429  -9.7539
 6.10000    1.87     1.87   0.83404  -9.7538
 6.15000    1.87     1.87   0.83420  -9.7539
 6.20000    1.87     1.87   0.83324  -9.7540
 6.25000    1.87     1.87   0.83282  -9.7540
 6.30000    1.87     1.87   0.83250  -9.7540
 6.35000    1.87     1.87   0.83229  -9.7539
 6.40000    1.87     1.87   0.83193  -9.7538
 6.45000    1.87     1.87   0.83271  -9.7542
 6.50000    1.87     1.87   0.83206  -9.7541
 6.55000    1.87     1.87   0.83153  -9.7539
 6.60000    1.87     1.87   0.83179  -9.7540
 6.65000    1.87     1.87   0.83268  -9.7539
 6.70000    1.87     1.87   0.83351  -9.7540
 6.75000    1.87     1.87   0.83390  -9.7537
 6.80000    1.87     1.87   0.83365  -9.7538
 6.85000    1.87     1.87   0.83268  -9.7536
 6.90000    1.87     1.87   0.83188  -9.7537
 6.95000    1.87     1.87   0.83101  -9.7538
 7.00000    1.87     1.87   0.83091  -9.7538
 7.00000    1.87     1.87   0.83098  -9.7537
 6.95000    1.87     1.87   0.83114  -9.7536
 6.90000    1.87     1.87   0.83165  -9.7537
 6.85000    1.87     1.87   0.83262  -9.7538
 6.80000    1.87     1.87   0.83273  -9.7540
 6.75000    1.87     1.87   0.83232  -9.7540
 6.70000    1.87     1.87   0.83190  -9.7538
 6.65000    1.87     1.87   0.83257  -9.7536
 6.60000    1.87     1.87   0.83250  -9.7538
 6.55000    1.87     1.87   0.83252  -9.7538
 6.50000    1.87     1.87   0.83296  -9.7538
 6.45000    1.87     1.87   0.83436  -9.7538
 6.40000    1.87     1.87   0.83413  -9.7537
 6.35000    1.87     1.87   0.83450  -9.7536
 6.30000    1.87     1.87   0.83386  -9.7537
 6.25000    1.87     1.87   0.83291  -9.7535
 6.20000    1.87     1.87   0.83340  -9.7537
 6.15000    1.87     1.87   0.83333  -9.7537
 6.10000    1.87     1.87   0.83462  -9.7539
 6.05000    1.87     1.87   0.83535  -9.7535
 6.00000    1.87     1.87   0.83528  -9.7539
 5.95000    1.87     1.87   0.83455  -9.7539
 5.90000    1.87     1.87   0.83496  -9.7536
 5.85000    1.87     1.87   0.83452  -9.7535
 5.80000    1.87     1.87   0.83521  -9.7534
 5.75000    1.87     1.87   0.83524  -9.7537
 5.70000    1.87     1.87   0.83538  -9.7536
 5.65000    1.87     1.87   0.83653  -9.7534
 5.60000    1.87     1.87   0.83636  -9.7535
 5.55000    1.87     1.87   0.83659  -9.7537
 5.50000    1.87     1.87   0.83825  -9.7537
 5.45000    1.87     1.87   0.84119  -9.7537
 5.40000    1.87     1.87   0.84223  -9.7538
 5.35000    1.87     1.87   0.84211  -9.7538
 5.30000    1.87     1.87   0.84276  -9.7536
 5.25000    1.87     1.87   0.84333  -9.7539
 5.20000    1.87     1.87   0.84379  -9.7540
 5.15000    1.87     1.87   0.83915  -9.7539
 5.10000    1.87     1.87   0.83883  -9.7540
 5.05000    1.87     1.87   0.83892  -9.7541
 5.00000    1.87     1.87   0.83841  -9.7542
 4.95000    1.87     1.87   0.83843  -9.7542
 4.90000    1.87     1.87   0.83843  -9.7541
 4.85000    1.87     1.87   0.84016  -9.7540
 4.80000    1.87     1.87   0.84046  -9.7536
 4.75000    1.87     1.87   0.84025  -9.7527
 4.70000    1.87     1.87   0.84032  -9.7528
 4.65000    1.87     1.87   0.84478  -9.7538
 4.60000    1.87     1.87   0.84591  -9.7543
 4.55000    1.87     1.87   0.84579  -9.7541
 4.50000    1.87     1.87   0.84154  -9.7540
 4.45000    1.87     1.87   0.84087  -9.7541
 4.40000    1.87     1.87   0.84177  -9.7539
 4.35000    1.87     1.87   0.84287  -9.7540
 4.30000    1.87     1.87   0.84338  -9.7539
 4.25000    1.87     1.87   0.84363  -9.7538
 4.20000    1.87     1.87   0.84372  -9.7536
 4.15000    1.87     1.87   0.84398  -9.7539
 4.10000    1.87     1.87   0.84444  -9.7537
 4.05000    1.87     1.87   0.84430  -9.7540
 4.00000    1.87     1.87   0.84423  -9.7541
 3.95000    1.87     1.87   0.84439  -9.7537
 3.90000    1.87     1.87   0.84552  -9.7538
 3.85000    1.87     1.87   0.84570  -9.7536
 3.80000    1.87     1.87   0.84655  -9.7537
 3.75000    1.87     1.87   0.84694  -9.7537
 3.70000    1.87     1.87   0.84750  -9.7537
 3.65000    1.87     1.87   0.84789  -9.7538
 3.60000    1.87     1.87   0.84814  -9.7538
 3.55000    1.87     1.87   0.84743  -9.7539
 3.50000    1.87     1.87   0.84807  -9.7537
 3.45000    1.87     1.87   0.84832  -9.7541
 3.40000    1.87     1.87   0.84809  -9.7541
 3.35000    1.87     1.87   0.84579  -9.7535
 3.30000    1.87     1.87   0.84812  -9.7537
 3.25000    1.87     1.87   0.84837  -9.7540
 3.20000    1.87     1.87   0.84920  -9.7540
 3.15000    1.87     1.87   0.84991  -9.7539
 3.10000    1.87     1.87   0.84846  -9.7539
 3.05000    1.87     1.87   0.84924  -9.7540
 3.00000    1.87     1.87   0.84934  -9.7542
 2.95000    1.87     1.87   0.85039  -9.7542
 2.90000    1.87     1.87   0.85016  -9.7541
 2.85000    1.87     1.87   0.84968  -9.7540
 2.80000    1.87     1.87   0.84947  -9.7540
 2.75000    1.87     1.87   0.84947  -9.7539
 2.70000    1.87     1.87   0.85030  -9.7539
 2.65000    1.87     1.87   0.85042  -9.7536
 2.60000    1.87     1.87   0.85088  -9.7529
 2.55000    1.87     1.87   0.85007  -9.7535
 2.50000    1.87     1.87   0.84957  -9.7539
 2.45000    1.87     1.87   0.85079  -9.7537
 2.40000    1.87     1.87   0.85069  -9.7542
 2.35000    1.87     1.87   0.85007  -9.7541
 2.30000    1.87     1.87   0.84975  -9.7536
 2.25000    1.87     1.87   0.85173  -9.7540
 2.20000    1.87     1.87   0.85046  -9.7542
 2.15000    1.87     1.87   0.85150  -9.7543
 2.10000    1.87     1.87   0.85177  -9.7542
 2.05000    1.87     1.87   0.85030  -9.7542
 2.00000    1.87     1.87   0.84911  -9.7546
 1.95000    1.87     1.87   0.84872  -9.7546
 1.90000    1.87     1.87   0.84830  -9.7544
 1.85000    1.87     1.87   0.84683  -9.7546
 1.80000    1.87     1.87   0.84823  -9.7546
 1.75000    1.87     1.87   0.84676  -9.7547
 1.70000    1.87     1.87   0.84616  -9.7548
 1.65000    1.87     1.87   0.84665  -9.7548
 1.60000    1.87     1.87   0.84667  -9.7547
 1.55000    1.87     1.87   0.84596  -9.7552
 1.50000    1.87     1.87   0.84483  -9.7548
 1.45000    1.87     1.87   0.84363  -9.7548
 1.40000    1.87     1.87   0.84269  -9.7549
 1.35000    1.87     1.87   0.84103  -9.7547
 1.30000    1.87     1.87   0.84067  -9.7547
 1.25000    1.87     1.87   0.83811  -9.7545
 1.20000    1.87     1.87   0.83712  -9.7543
 1.15000    1.87     1.87   0.83613  -9.7539
 1.10000    1.87     1.87   0.83425  -9.7536
 1.05000    1.87     1.87   0.83282  -9.7536
 1.00000    1.87     1.87   0.83229  -9.7529
 0.95000    1.87     1.87   0.83234  -9.7523
 0.90000    1.87     1.87   0.83213  -9.7518
 0.85000    1.87     1.87   0.83351  -9.7512
 0.80000    1.87     1.87   0.83581  -9.7509
 0.75000    1.87     1.87   0.83680  -9.7505
 0.70000    1.87     1.87   0.83984  -9.7502
 0.65000    1.87     1.87   0.84262  -9.7505
 0.60000    1.87     1.87   0.84379  -9.7504
 0.55000    1.87     1.87   0.84533  -9.7505
 0.50000    1.87     1.87   0.84527  -9.7505
 0.45000    1.87     1.87   0.84681  -9.7503
 0.40000    1.87     1.87   0.84694  -9.7504
 0.35000    1.87     1.87   0.84883  -9.7505
 0.30000    1.87     1.87   0.84830  -9.7506
 0.25000    1.87     1.87   0.84849  -9.7502
 0.20000    1.87     1.87   0.84883  -9.7503
 0.15000    1.87     1.87   0.85000  -9.7503
 0.10000    1.87     1.87   0.85053  -9.7502
 0.05000    1.87     1.87   0.85079  -9.7500
 -0.00000    1.87     1.87   0.85046  -9.7500
