 Field[T] Tsmpl[K] Tcntr[K] Signal   Mirror[MM]
 0.00000    1.84     1.84   0.79126  -9.7253
 0.05000    1.84     1.84   0.79376  -9.7252
 0.10000    1.84     1.84   0.79586  -9.7252
 0.15000    1.84     1.84   0.79716  -9.7253
 0.20000    1.84     1.84   0.79838  -9.7253
 0.25000    1.84     1.84   0.79980  -9.7252
 0.30000    1.84     1.84   0.80138  -9.7251
 0.35000    1.84     1.84   0.80266  -9.7250
 0.40000    1.84     1.84   0.80434  -9.7251
 0.45000    1.84     1.84   0.80590  -9.7251
 0.50000    1.84     1.84   0.80690  -9.7249
 0.55000    1.84     1.84   0.80856  -9.7247
 0.60000    1.84     1.84   0.80976  -9.7245
 0.65000    1.84     1.84   0.81014  -9.7244
 0.70000    1.84     1.84   0.81068  -9.7244
 0.75000    1.84     1.84   0.81118  -9.7244
 0.80000    1.84     1.84   0.81116  -9.7240
 0.85000    1.84     1.84   0.81154  -9.7242
 0.90000    1.84     1.84   0.81050  -9.7243
 0.95000    1.84     1.84   0.80936  -9.7242
 1.00000    1.84     1.84   0.80796  -9.7243
 1.05000    1.84     1.84   0.80678  -9.7244
 1.10000    1.84     1.84   0.80698  -9.7250
 1.15000    1.84     1.84   0.80718  -9.7252
 1.20000    1.84     1.84   0.80716  -9.7254
 1.25000    1.84     1.84   0.80784  -9.7259
 1.30000    1.84     1.84   0.80808  -9.7263
 1.35000    1.84     1.84   0.80976  -9.7264
 1.40000    1.84     1.84   0.81042  -9.7265
 1.45000    1.84     1.84   0.81120  -9.7266
 1.50000    1.84     1.84   0.81214  -9.7269
 1.55000    1.84     1.84   0.81224  -9.7268
 1.60000    1.84     1.84   0.81324  -9.7268
 1.65000    1.84     1.84   0.81402  -9.7269
 1.70000    1.84     1.84   0.81492  -9.7270
 1.75000    1.84     1.84   0.81504  -9.7270
 1.80000    1.84     1.84   0.81554  -9.7268
 1.85000    1.84     1.84   0.81578  -9.7268
 1.90000    1.84     1.84   0.81602  -9.7266
 1.95000    1.84     1.84   0.81616  -9.7269
 2.00000    1.84     1.84   0.81636  -9.7268
 2.05000    1.84     1.84   0.81712  -9.7267
 2.10000    1.84     1.84   0.81764  -9.7266
 2.15000    1.84     1.84   0.81802  -9.7265
 2.20000    1.84     1.84   0.81788  -9.7263
 2.25000    1.84     1.84   0.81748  -9.7263
 2.30000    1.84     1.84   0.81740  -9.7261
 2.35000    1.84     1.84   0.81752  -9.7257
 2.40000    1.84     1.84   0.81738  -9.7262
 2.45000    1.84     1.84   0.81704  -9.7262
 2.50000    1.84     1.84   0.81776  -9.7261
 2.55000    1.84     1.84   0.81790  -9.7260
 2.60000    1.84     1.84   0.81758  -9.7258
 2.65000    1.84     1.84   0.81664  -9.7258
 2.70000    1.84     1.84   0.81688  -9.7260
 2.75000    1.84     1.84   0.81650  -9.7258
 2.80000    1.84     1.84   0.81630  -9.7257
 2.85000    1.84     1.84   0.81678  -9.7256
 2.90000    1.84     1.84   0.81592  -9.7260
 2.95000    1.84     1.84   0.81600  -9.7257
 3.00000    1.84     1.84   0.81616  -9.7257
 3.00000    1.84     1.84   0.81602  -9.7252
 2.95000    1.84     1.84   0.81550  -9.7254
 2.90000    1.84     1.84   0.81550  -9.7255
 2.85000    1.84     1.84   0.81536  -9.7256
 2.80000    1.84     1.84   0.81484  -9.7256
 2.75000    1.84     1.84   0.81466  -9.7254
 2.70000    1.84     1.84   0.81436  -9.7258
 2.65000    1.84     1.84   0.81388  -9.7258
 2.60000    1.84     1.84   0.81400  -9.7257
 2.55000    1.84     1.84   0.81346  -9.7259
 2.50000    1.84     1.84   0.81320  -9.7258
 2.45000    1.84     1.84   0.81300  -9.7257
 2.40000    1.84     1.84   0.81284  -9.7257
 2.35000    1.84     1.84   0.81246  -9.7257
 2.30000    1.84     1.84   0.81200  -9.7257
 2.25000    1.84     1.84   0.81168  -9.7258
 2.20000    1.84     1.84   0.81212  -9.7260
 2.15000    1.84     1.84   0.81174  -9.7257
 2.10000    1.84     1.84   0.81078  -9.7258
 2.05000    1.84     1.84   0.81038  -9.7258
 2.00000    1.84     1.84   0.80996  -9.7257
 1.95000    1.84     1.84   0.80964  -9.7254
 1.90000    1.84     1.84   0.80936  -9.7255
 1.85000    1.84     1.84   0.80852  -9.7255
 1.80000    1.84     1.84   0.80814  -9.7253
 1.75000    1.84     1.84   0.80760  -9.7250
 1.70000    1.84     1.84   0.80680  -9.7253
 1.65000    1.84     1.84   0.80620  -9.7252
 1.60000    1.84     1.84   0.80540  -9.7251
 1.55000    1.84     1.84   0.80430  -9.7253
 1.50000    1.84     1.84   0.80418  -9.7248
 1.45000    1.84     1.84   0.80314  -9.7247
 1.40000    1.84     1.84   0.80232  -9.7244
 1.35000    1.84     1.84   0.80108  -9.7242
 1.30000    1.84     1.84   0.80080  -9.7242
 1.25000    1.84     1.84   0.80020  -9.7239
 1.20000    1.84     1.84   0.80048  -9.7233
 1.15000    1.84     1.84   0.79968  -9.7229
 1.10000    1.84     1.84   0.79962  -9.7225
 1.05000    1.84     1.84   0.79986  -9.7223
 1.00000    1.84     1.84   0.80110  -9.7219
 0.95000    1.84     1.84   0.80340  -9.7217
 0.90000    1.84     1.84   0.80574  -9.7213
 0.85000    1.84     1.84   0.80682  -9.7213
 0.80000    1.84     1.84   0.80842  -9.7212
 0.75000    1.84     1.84   0.80878  -9.7211
 0.70000    1.84     1.84   0.80940  -9.7212
 0.65000    1.84     1.84   0.80980  -9.7213
 0.60000    1.84     1.84   0.81054  -9.7213
 0.55000    1.84     1.84   0.81100  -9.7212
 0.50000    1.84     1.84   0.81178  -9.7210
 0.45000    1.84     1.84   0.81188  -9.7210
 0.40000    1.84     1.84   0.81170  -9.7211
 0.35000    1.84     1.84   0.81230  -9.7211
 0.30000    1.84     1.84   0.81206  -9.7213
 0.25000    1.84     1.84   0.81240  -9.7213
 0.20000    1.84     1.84   0.81236  -9.7213
 0.15000    1.84     1.84   0.81260  -9.7213
 0.10000    1.84     1.84   0.81348  -9.7216
 0.05000    1.84     1.84   0.81354  -9.7215
 -0.00000    1.84     1.84   0.81312  -9.7213
