 Field[T] Tsmpl[K] Tcntr[K] Signal   Mirror[MM]
 0.00000    1.82     1.82   0.18761  -9.7145
 0.05000    1.82     1.82   0.18677  -9.7137
 0.10000    1.82     1.82   0.18655  -9.7134
 0.15000    1.82     1.82   0.18746  -9.7162
 0.20000    1.82     1.82   0.18701  -9.7172
 0.25000    1.82     1.82   0.18732  -9.7180
 0.30000    1.82     1.82   0.18662  -9.7188
 0.35000    1.82     1.82   0.18650  -9.7195
 0.40000    1.82     1.82   0.18665  -9.7192
 0.45000    1.82     1.82   0.18646  -9.7198
 0.50000    1.82     1.82   0.18660  -9.7214
 0.55000    1.82     1.82   0.18655  -9.7218
 0.60000    1.82     1.82   0.18667  -9.7227
 0.65000    1.82     1.82   0.18672  -9.7231
 0.70000    1.82     1.82   0.18660  -9.7236
 0.75000    1.82     1.82   0.18660  -9.7236
 0.80000    1.82     1.82   0.18650  -9.7234
 0.85000    1.82     1.82   0.18631  -9.7230
 0.90000    1.82     1.82   0.18643  -9.7239
 0.95000    1.82     1.82   0.18588  -9.7241
 1.00000    1.82     1.82   0.18583  -9.7229
 1.05000    1.82     1.82   0.18619  -9.7243
 1.10000    1.82     1.82   0.18590  -9.7244
 1.15000    1.82     1.82   0.18602  -9.7248
 1.20000    1.82     1.82   0.18622  -9.7249
 1.25000    1.82     1.82   0.18588  -9.7246
 1.30000    1.82     1.82   0.18590  -9.7244
 1.35000    1.82     1.82   0.18598  -9.7249
 1.40000    1.82     1.82   0.18605  -9.7249
 1.45000    1.82     1.82   0.18600  -9.7247
 1.50000    1.82     1.82   0.18605  -9.7251
 1.55000    1.82     1.82   0.18583  -9.7246
 1.60000    1.82     1.82   0.18583  -9.7251
 1.65000    1.82     1.82   0.18578  -9.7257
 1.70000    1.82     1.82   0.18562  -9.7248
 1.75000    1.82     1.82   0.18530  -9.7249
 1.80000    1.82     1.82   0.18552  -9.7245
 1.85000    1.82     1.82   0.18576  -9.7244
 1.90000    1.82     1.82   0.18586  -9.7244
 1.95000    1.82     1.82   0.18554  -9.7245
 2.00000    1.82     1.82   0.18552  -9.7245
 2.05000    1.82     1.82   0.18533  -9.7237
 2.10000    1.82     1.82   0.18528  -9.7233
 2.15000    1.82     1.82   0.18518  -9.7234
 2.20000    1.82     1.82   0.18518  -9.7245
 2.25000    1.82     1.82   0.18538  -9.7244
 2.30000    1.82     1.82   0.18523  -9.7230
 2.35000    1.82     1.82   0.18468  -9.7207
 2.40000    1.82     1.82   0.18530  -9.7224
 2.45000    1.82     1.82   0.18516  -9.7245
 2.50000    1.82     1.82   0.18526  -9.7242
 2.55000    1.82     1.82   0.18540  -9.7241
 2.60000    1.82     1.82   0.18533  -9.7250
 2.65000    1.82     1.82   0.18540  -9.7244
 2.70000    1.82     1.82   0.18511  -9.7248
 2.75000    1.82     1.82   0.18506  -9.7254
 2.80000    1.82     1.82   0.18497  -9.7248
 2.85000    1.82     1.82   0.18509  -9.7257
 2.90000    1.82     1.82   0.18497  -9.7246
 2.95000    1.82     1.82   0.18526  -9.7252
 3.00000    1.82     1.82   0.18504  -9.7243
 3.05000    1.82     1.82   0.18482  -9.7240
 3.10000    1.82     1.82   0.18511  -9.7240
 3.15000    1.82     1.82   0.18506  -9.7241
 3.20000    1.82     1.82   0.18502  -9.7238
 3.25000    1.82     1.82   0.18487  -9.7241
 3.30000    1.82     1.82   0.18461  -9.7233
 3.35000    1.82     1.82   0.18470  -9.7238
 3.40000    1.82     1.82   0.18504  -9.7235
 3.45000    1.82     1.82   0.18478  -9.7239
 3.50000    1.82     1.82   0.18456  -9.7236
 3.55000    1.82     1.82   0.18451  -9.7234
 3.60000    1.82     1.82   0.18458  -9.7237
 3.65000    1.82     1.82   0.18463  -9.7239
 3.70000    1.82     1.82   0.18439  -9.7225
 3.75000    1.82     1.82   0.18458  -9.7227
 3.80000    1.82     1.82   0.18451  -9.7236
 3.85000    1.82     1.82   0.18444  -9.7236
 3.90000    1.82     1.82   0.18458  -9.7234
 3.95000    1.82     1.82   0.18468  -9.7235
 4.00000    1.82     1.82   0.18439  -9.7231
 4.05000    1.82     1.82   0.18497  -9.7231
 4.10000    1.82     1.82   0.18430  -9.7229
 4.15000    1.82     1.82   0.18430  -9.7225
 4.20000    1.82     1.82   0.18413  -9.7228
 4.25000    1.82     1.82   0.18422  -9.7223
 4.30000    1.82     1.82   0.18446  -9.7223
 4.35000    1.82     1.82   0.18437  -9.7231
 4.40000    1.82     1.82   0.18398  -9.7233
 4.45000    1.82     1.82   0.18413  -9.7228
 4.50000    1.82     1.82   0.18394  -9.7216
 4.55000    1.82     1.82   0.18434  -9.7219
 4.60000    1.82     1.82   0.18386  -9.7220
 4.65000    1.82     1.82   0.18401  -9.7216
 4.70000    1.82     1.82   0.18370  -9.7219
 4.75000    1.82     1.82   0.18410  -9.7218
 4.80000    1.82     1.82   0.18401  -9.7218
 4.85000    1.82     1.82   0.18442  -9.7217
 4.90000    1.82     1.82   0.18396  -9.7215
 4.95000    1.82     1.82   0.18434  -9.7215
 5.00000    1.82     1.82   0.18439  -9.7213
 5.05000    1.82     1.82   0.18439  -9.7213
 5.10000    1.82     1.82   0.18396  -9.7211
 5.15000    1.82     1.82   0.18406  -9.7222
 5.20000    1.82     1.82   0.18398  -9.7216
 5.25000    1.82     1.82   0.18379  -9.7215
 5.30000    1.82     1.82   0.18389  -9.7214
 5.35000    1.82     1.82   0.18415  -9.7220
 5.40000    1.82     1.82   0.18384  -9.7213
 5.45000    1.82     1.82   0.18394  -9.7215
 5.50000    1.82     1.82   0.18386  -9.7214
 5.55000    1.82     1.82   0.18348  -9.7215
 5.60000    1.82     1.82   0.18398  -9.7217
 5.65000    1.82     1.82   0.18410  -9.7214
 5.70000    1.82     1.82   0.18382  -9.7210
 5.75000    1.82     1.82   0.18374  -9.7218
 5.80000    1.82     1.82   0.18360  -9.7220
 5.85000    1.82     1.82   0.18374  -9.7221
 5.90000    1.82     1.82   0.18355  -9.7217
 5.95000    1.82     1.82   0.18341  -9.7220
 6.00000    1.82     1.82   0.18350  -9.7211
 6.05000    1.82     1.82   0.18358  -9.7216
 6.10000    1.82     1.82   0.18348  -9.7219
 6.15000    1.82     1.82   0.18302  -9.7211
 6.20000    1.82     1.82   0.18324  -9.7213
 6.25000    1.82     1.82   0.18317  -9.7209
 6.30000    1.82     1.82   0.18353  -9.7219
 6.35000    1.82     1.82   0.18305  -9.7213
 6.40000    1.82     1.82   0.18348  -9.7222
 6.45000    1.82     1.82   0.18334  -9.7223
 6.50000    1.82     1.82   0.18329  -9.7217
 6.55000    1.82     1.82   0.18338  -9.7216
 6.60000    1.82     1.82   0.18314  -9.7211
 6.65000    1.82     1.82   0.18341  -9.7217
 6.70000    1.82     1.82   0.18338  -9.7215
 6.75000    1.82     1.82   0.18334  -9.7211
 6.80000    1.82     1.82   0.18307  -9.7218
 6.85000    1.82     1.82   0.18346  -9.7218
 6.90000    1.82     1.82   0.18331  -9.7214
 6.95000    1.82     1.82   0.18331  -9.7215
 7.00000    1.82     1.82   0.18331  -9.7216
 7.00000    1.82     1.82   0.18372  -9.7213
 6.95000    1.82     1.82   0.18350  -9.7214
 6.90000    1.82     1.82   0.18358  -9.7213
 6.85000    1.82     1.82   0.18346  -9.7207
 6.80000    1.82     1.82   0.18355  -9.7209
 6.75000    1.82     1.82   0.18353  -9.7207
 6.70000    1.82     1.82   0.18353  -9.7204
 6.65000    1.82     1.82   0.18336  -9.7204
 6.60000    1.82     1.82   0.18362  -9.7205
 6.55000    1.82     1.82   0.18389  -9.7201
 6.50000    1.82     1.82   0.18343  -9.7196
 6.45000    1.82     1.82   0.18362  -9.7213
 6.40000    1.82     1.82   0.18343  -9.7194
 6.35000    1.82     1.82   0.18343  -9.7201
 6.30000    1.82     1.82   0.18406  -9.7199
 6.25000    1.82     1.82   0.18374  -9.7194
 6.20000    1.82     1.82   0.18358  -9.7200
 6.15000    1.82     1.82   0.18382  -9.7202
 6.10000    1.82     1.82   0.18338  -9.7193
 6.05000    1.82     1.82   0.18396  -9.7197
 6.00000    1.82     1.82   0.18372  -9.7196
 5.95000    1.82     1.82   0.18372  -9.7193
 5.90000    1.82     1.82   0.18365  -9.7197
 5.85000    1.82     1.82   0.18360  -9.7197
 5.80000    1.82     1.82   0.18377  -9.7195
 5.75000    1.82     1.82   0.18355  -9.7192
 5.70000    1.82     1.82   0.18410  -9.7196
 5.65000    1.82     1.82   0.18406  -9.7205
 5.60000    1.82     1.82   0.18379  -9.7193
 5.55000    1.82     1.82   0.18413  -9.7192
 5.50000    1.82     1.82   0.18398  -9.7191
 5.45000    1.82     1.82   0.18403  -9.7184
 5.40000    1.82     1.82   0.18391  -9.7195
 5.35000    1.82     1.82   0.18427  -9.7202
 5.30000    1.82     1.82   0.18401  -9.7194
 5.25000    1.82     1.82   0.18422  -9.7192
 5.20000    1.82     1.82   0.18432  -9.7192
 5.15000    1.82     1.82   0.18394  -9.7190
 5.10000    1.82     1.82   0.18430  -9.7185
 5.05000    1.82     1.82   0.18451  -9.7191
 5.00000    1.82     1.82   0.18418  -9.7176
 4.95000    1.82     1.82   0.18410  -9.7182
 4.90000    1.82     1.82   0.18437  -9.7185
 4.85000    1.82     1.82   0.18437  -9.7195
 4.80000    1.82     1.82   0.18437  -9.7193
 4.75000    1.82     1.82   0.18451  -9.7189
 4.70000    1.82     1.82   0.18444  -9.7189
 4.65000    1.82     1.82   0.18446  -9.7182
 4.60000    1.82     1.82   0.18444  -9.7184
 4.55000    1.82     1.82   0.18439  -9.7179
 4.50000    1.82     1.82   0.18403  -9.7178
 4.45000    1.82     1.82   0.18456  -9.7178
 4.40000    1.82     1.82   0.18454  -9.7174
 4.35000    1.82     1.82   0.18458  -9.7181
 4.30000    1.82     1.82   0.18398  -9.7181
 4.25000    1.82     1.82   0.18451  -9.7179
 4.20000    1.82     1.82   0.18454  -9.7180
 4.15000    1.82     1.82   0.18432  -9.7178
 4.10000    1.82     1.82   0.18473  -9.7184
 4.05000    1.82     1.82   0.18427  -9.7184
 4.00000    1.82     1.82   0.18497  -9.7172
 3.95000    1.82     1.82   0.18434  -9.7177
 3.90000    1.82     1.82   0.18437  -9.7170
 3.85000    1.82     1.82   0.18449  -9.7180
 3.80000    1.82     1.82   0.18432  -9.7167
 3.75000    1.82     1.82   0.18449  -9.7169
 3.70000    1.82     1.82   0.18442  -9.7175
 3.65000    1.82     1.82   0.18449  -9.7175
 3.60000    1.82     1.82   0.18473  -9.7173
 3.55000    1.82     1.82   0.18485  -9.7173
 3.50000    1.82     1.82   0.18463  -9.7171
 3.45000    1.82     1.82   0.18466  -9.7175
 3.40000    1.82     1.82   0.18485  -9.7172
 3.35000    1.82     1.82   0.18490  -9.7170
 3.30000    1.82     1.82   0.18485  -9.7171
 3.25000    1.82     1.82   0.18487  -9.7156
 3.20000    1.82     1.82   0.18475  -9.7167
 3.15000    1.82     1.82   0.18526  -9.7164
 3.10000    1.82     1.82   0.18470  -9.7160
 3.05000    1.82     1.82   0.18506  -9.7156
 3.00000    1.82     1.82   0.18475  -9.7168
 2.95000    1.82     1.82   0.18502  -9.7152
 2.90000    1.82     1.82   0.18485  -9.7167
 2.85000    1.82     1.82   0.18461  -9.7162
 2.80000    1.82     1.82   0.18504  -9.7163
 2.75000    1.82     1.82   0.18473  -9.7161
 2.70000    1.82     1.82   0.18518  -9.7161
 2.65000    1.82     1.82   0.18499  -9.7155
 2.60000    1.82     1.82   0.18523  -9.7157
 2.55000    1.82     1.82   0.18535  -9.7158
 2.50000    1.82     1.82   0.18516  -9.7155
 2.45000    1.82     1.82   0.18535  -9.7158
 2.40000    1.82     1.82   0.18511  -9.7150
 2.35000    1.82     1.82   0.18540  -9.7148
 2.30000    1.82     1.82   0.18540  -9.7146
 2.25000    1.82     1.82   0.18559  -9.7149
 2.20000    1.82     1.82   0.18535  -9.7136
 2.15000    1.82     1.82   0.18545  -9.7139
 2.10000    1.82     1.82   0.18552  -9.7144
 2.05000    1.82     1.82   0.18545  -9.7134
 2.00000    1.82     1.82   0.18564  -9.7129
 1.95000    1.82     1.82   0.18581  -9.7128
 1.90000    1.82     1.82   0.18557  -9.7126
 1.85000    1.82     1.82   0.18571  -9.7122
 1.80000    1.82     1.82   0.18569  -9.7118
 1.75000    1.82     1.82   0.18602  -9.7130
 1.70000    1.82     1.82   0.18554  -9.7128
 1.65000    1.82     1.82   0.18612  -9.7129
 1.60000    1.82     1.82   0.18574  -9.7130
 1.55000    1.82     1.82   0.18583  -9.7122
 1.50000    1.82     1.82   0.18564  -9.7121
 1.45000    1.82     1.82   0.18571  -9.7129
 1.40000    1.82     1.82   0.18574  -9.7123
 1.35000    1.82     1.82   0.18610  -9.7111
 1.30000    1.82     1.82   0.18629  -9.7116
 1.25000    1.82     1.82   0.18595  -9.7112
 1.20000    1.82     1.82   0.18612  -9.7113
 1.15000    1.82     1.82   0.18605  -9.7114
 1.10000    1.82     1.82   0.18595  -9.7108
 1.05000    1.82     1.82   0.18574  -9.7105
 1.00000    1.82     1.82   0.18612  -9.7101
 0.95000    1.82     1.82   0.18602  -9.7110
 0.90000    1.82     1.82   0.18576  -9.7105
 0.85000    1.82     1.82   0.18593  -9.7107
 0.80000    1.82     1.82   0.18562  -9.7100
 0.75000    1.82     1.82   0.18598  -9.7099
 0.70000    1.82     1.82   0.18636  -9.7103
 0.65000    1.82     1.82   0.18622  -9.7093
 0.60000    1.82     1.82   0.18602  -9.7087
 0.55000    1.82     1.82   0.18617  -9.7082
 0.50000    1.82     1.82   0.18650  -9.7075
 0.45000    1.82     1.82   0.18614  -9.7065
 0.40000    1.82     1.82   0.18682  -9.7058
 0.35000    1.82     1.82   0.18665  -9.7062
 0.30000    1.82     1.82   0.18629  -9.7050
 0.25000    1.82     1.82   0.18646  -9.7046
 0.20000    1.82     1.82   0.18655  -9.7039
 0.15000    1.82     1.82   0.18658  -9.7034
 0.10000    1.82     1.82   0.18686  -9.7026
 0.05000    1.82     1.82   0.18703  -9.7019
 -0.00000    1.82     1.82   0.18694  -9.6999
