 Field[T] Tsmpl[K] Tcntr[K] Signal   Mirror[MM]
 0.00000    1.81     1.81   0.31859  -9.4819
 0.05000    1.81     1.81   0.31946  -9.4822
 0.10000    1.81     1.81   0.32038  -9.4822
 0.15000    1.81     1.81   0.32136  -9.4840
 0.20000    1.81     1.81   0.32157  -9.4858
 0.25000    1.81     1.81   0.32263  -9.4868
 0.30000    1.81     1.81   0.32315  -9.4886
 0.35000    1.81     1.81   0.32503  -9.4899
 0.40000    1.81     1.81   0.32625  -9.4917
 0.45000    1.81     1.81   0.32797  -9.4929
 0.50000    1.81     1.81   0.32827  -9.4940
 0.55000    1.81     1.81   0.33003  -9.4947
 0.60000    1.81     1.81   0.33184  -9.4955
 0.65000    1.81     1.81   0.33281  -9.4961
 0.70000    1.81     1.81   0.33335  -9.4969
 0.75000    1.81     1.81   0.33415  -9.4968
 0.80000    1.81     1.81   0.33412  -9.4978
 0.85000    1.81     1.81   0.33572  -9.4976
 0.90000    1.81     1.81   0.33574  -9.4976
 0.95000    1.81     1.81   0.33607  -9.4978
 1.00000    1.81     1.81   0.33570  -9.4976
 1.05000    1.81     1.81   0.33647  -9.4975
 1.10000    1.81     1.81   0.33596  -9.4977
 1.15000    1.81     1.81   0.33593  -9.4973
 1.20000    1.81     1.81   0.33546  -9.4983
 1.25000    1.81     1.81   0.33558  -9.4980
 1.30000    1.81     1.81   0.33610  -9.4981
 1.35000    1.81     1.81   0.33671  -9.4972
 1.40000    1.81     1.81   0.33751  -9.4978
 1.45000    1.81     1.81   0.33777  -9.4987
 1.50000    1.81     1.81   0.33758  -9.4989
 1.55000    1.81     1.81   0.33922  -9.4988
 1.60000    1.81     1.81   0.33925  -9.4992
 1.65000    1.81     1.81   0.34004  -9.4995
 1.70000    1.81     1.81   0.34002  -9.4991
 1.75000    1.81     1.81   0.33965  -9.4982
 1.80000    1.81     1.81   0.33873  -9.4987
 1.85000    1.81     1.81   0.33873  -9.4985
 1.90000    1.81     1.81   0.33934  -9.4989
 1.95000    1.81     1.81   0.34044  -9.4991
 2.00000    1.81     1.81   0.34091  -9.4998
 2.05000    1.81     1.81   0.34009  -9.4993
 2.10000    1.81     1.81   0.34087  -9.4994
 2.15000    1.81     1.81   0.33852  -9.4987
 2.20000    1.81     1.81   0.33715  -9.4996
 2.25000    1.81     1.81   0.33638  -9.4986
 2.30000    1.81     1.81   0.33697  -9.4983
 2.35000    1.81     1.81   0.33647  -9.4994
 2.40000    1.81     1.81   0.33556  -9.4991
 2.45000    1.81     1.81   0.33720  -9.4994
 2.50000    1.81     1.81   0.33765  -9.4992
 2.55000    1.81     1.81   0.33715  -9.4996
 2.60000    1.81     1.81   0.33833  -9.4996
 2.65000    1.81     1.81   0.33993  -9.5000
 2.70000    1.81     1.81   0.33894  -9.5002
 2.75000    1.81     1.81   0.33744  -9.4998
 2.80000    1.81     1.81   0.33718  -9.4993
 2.85000    1.81     1.81   0.33828  -9.5001
 2.90000    1.81     1.81   0.33899  -9.5008
 2.95000    1.81     1.81   0.33969  -9.5009
 3.00000    1.81     1.81   0.33835  -9.5008
 3.05000    1.81     1.81   0.33868  -9.5007
 3.10000    1.81     1.81   0.33901  -9.5015
 3.15000    1.81     1.81   0.33885  -9.5016
 3.20000    1.81     1.81   0.33995  -9.5018
 3.25000    1.81     1.81   0.33990  -9.5019
 3.30000    1.81     1.81   0.33871  -9.5021
 3.35000    1.81     1.81   0.33864  -9.5018
 3.40000    1.81     1.81   0.33805  -9.5018
 3.45000    1.81     1.81   0.33802  -9.5015
 3.50000    1.81     1.81   0.33767  -9.5019
 3.55000    1.81     1.81   0.33779  -9.5020
 3.60000    1.81     1.81   0.33673  -9.5016
 3.65000    1.81     1.81   0.33892  -9.5027
 3.70000    1.81     1.81   0.33995  -9.5034
 3.75000    1.81     1.81   0.33986  -9.5026
 3.80000    1.81     1.81   0.34101  -9.5029
 3.85000    1.81     1.81   0.34002  -9.5033
 3.90000    1.81     1.81   0.33967  -9.5027
 3.95000    1.81     1.81   0.33990  -9.5031
 4.00000    1.81     1.81   0.33925  -9.5026
 4.05000    1.81     1.81   0.34023  -9.5028
 4.10000    1.81     1.81   0.33899  -9.5029
 4.15000    1.81     1.81   0.33920  -9.5025
 4.20000    1.81     1.81   0.33692  -9.5029
 4.25000    1.81     1.81   0.33636  -9.5026
 4.30000    1.81     1.81   0.33711  -9.5030
 4.35000    1.81     1.81   0.33645  -9.5032
 4.40000    1.81     1.81   0.33567  -9.5032
 4.45000    1.81     1.81   0.33638  -9.5031
 4.50000    1.81     1.81   0.33607  -9.5027
 4.55000    1.81     1.81   0.33680  -9.5033
 4.60000    1.81     1.81   0.33624  -9.5026
 4.65000    1.81     1.81   0.33572  -9.5030
 4.70000    1.81     1.81   0.33403  -9.5024
 4.75000    1.81     1.81   0.33537  -9.5032
 4.80000    1.81     1.81   0.33271  -9.5032
 4.85000    1.81     1.81   0.33267  -9.5026
 4.90000    1.81     1.81   0.33269  -9.5024
 4.95000    1.81     1.81   0.33389  -9.5032
 5.00000    1.81     1.81   0.33405  -9.5033
 5.05000    1.81     1.81   0.33241  -9.5026
 5.10000    1.81     1.81   0.33245  -9.5027
 5.15000    1.81     1.81   0.33029  -9.5026
 5.20000    1.81     1.81   0.32978  -9.5026
 5.25000    1.81     1.81   0.32898  -9.5024
 5.30000    1.81     1.81   0.32740  -9.5017
 5.35000    1.81     1.81   0.32703  -9.5015
 5.40000    1.81     1.81   0.32663  -9.5018
 5.45000    1.81     1.81   0.32681  -9.5017
 5.50000    1.81     1.81   0.32620  -9.5018
 5.55000    1.81     1.81   0.32731  -9.5022
 5.60000    1.81     1.81   0.32693  -9.5017
 5.65000    1.81     1.81   0.32724  -9.5024
 5.70000    1.81     1.81   0.32787  -9.5022
 5.75000    1.81     1.81   0.33010  -9.5028
 5.80000    1.81     1.81   0.32954  -9.5024
 5.85000    1.81     1.81   0.32877  -9.5024
 5.90000    1.81     1.81   0.32667  -9.5017
 5.95000    1.81     1.81   0.32700  -9.5014
 6.00000    1.81     1.81   0.32830  -9.5017
 6.05000    1.81     1.81   0.32583  -9.5012
 6.10000    1.81     1.81   0.32446  -9.5009
 6.15000    1.81     1.81   0.32519  -9.5010
 6.20000    1.81     1.81   0.32552  -9.5012
 6.25000    1.81     1.81   0.32559  -9.5012
 6.30000    1.81     1.81   0.32677  -9.5013
 6.35000    1.81     1.81   0.32531  -9.5009
 6.40000    1.81     1.81   0.32482  -9.5010
 6.45000    1.81     1.81   0.32435  -9.5009
 6.50000    1.81     1.81   0.32390  -9.5008
 6.55000    1.81     1.81   0.32533  -9.5009
 6.60000    1.81     1.81   0.32425  -9.5005
 6.65000    1.81     1.81   0.32381  -9.5009
 6.70000    1.81     1.81   0.32602  -9.5011
 6.75000    1.81     1.81   0.32508  -9.5010
 6.80000    1.81     1.81   0.32470  -9.5010
 6.85000    1.81     1.81   0.32515  -9.5008
 6.90000    1.81     1.81   0.32540  -9.5008
 6.95000    1.81     1.81   0.32555  -9.5009
 7.00000    1.81     1.81   0.32294  -9.5006
