 Field[T] Tsmpl[K] Tcntr[K] Signal Mirror[MM] RefSignal
 5.00000    5.11     3.04   0.08267  3.2997   0.13210
 4.95000    5.11     3.05   0.08322  3.2997   0.13217
 4.90000    5.11     3.05   0.08287  3.2997   0.13321
 4.85000    5.11     3.06   0.08256  3.2996   0.13213
 4.80000    5.12     3.07   0.08258  3.2996   0.13246
 4.75000    5.14     3.07   0.08249  3.2995   0.13326
 4.70000    5.15     3.07   0.08224  3.2996   0.13290
 4.65000    5.17     3.08   0.08232  3.2996   0.13196
 4.60000    5.18     3.08   0.08301  3.2997   0.13315
 4.55000    5.21     3.09   0.08348  3.2995   0.13318
 4.50000    5.23     3.09   0.08331  3.2996   0.13240
 4.45000    5.25     3.10   0.08298  3.2995   0.13258
 4.40000    5.27     3.11   0.08277  3.2994   0.13175
 4.35000    5.29     3.10   0.08258  3.2995   0.13146
 4.30000    5.31     3.09   0.08236  3.2995   0.13245
 4.25000    5.33     3.09   0.08244  3.2992   0.13148
 4.20000    5.34     3.09   0.08240  3.2992   0.13128
 4.15000    5.35     3.10   0.08248  3.2992   0.13275
 4.10000    5.37     3.09   0.08263  3.2993   0.13160
 4.05000    5.39     3.08   0.08281  3.2992   0.13171
 4.00000    5.40     3.10   0.08307  3.2991   0.13277
 3.95000    5.42     3.09   0.08281  3.2993   0.13297
 3.90000    5.43     3.08   0.08264  3.2991   0.13159
 3.85000    5.45     3.07   0.08270  3.2990   0.13171
 3.80000    5.46     3.07   0.08256  3.2990   0.13127
 3.75000    5.47     3.07   0.08260  3.2990   0.13239
 3.70000    5.48     3.07   0.08267  3.2991   0.13133
 3.65000    5.49     3.06   0.08304  3.2991   0.13296
 3.60000    5.50     3.04   0.08267  3.2989   0.13059
 3.55000    5.50     3.04   0.08252  3.2989   0.13256
 3.50000    5.51     3.05   0.08258  3.2989   0.13262
 3.45000    5.51     3.04   0.08275  3.2989   0.13391
 3.40000    5.52     3.04   0.08309  3.2990   0.13119
 3.35000    5.53     3.05   0.08280  3.2990   0.13340
 3.30000    5.53     3.03   0.08244  3.2987   0.13137
 3.25000    5.54     3.03   0.08242  3.2987   0.13222
 3.20000    5.54     3.02   0.08232  3.2986   0.13141
 3.15000    5.55     3.02   0.08238  3.2987   0.13361
 3.10000    5.55     3.02   0.08239  3.2987   0.13267
 3.05000    5.55     3.02   0.08285  3.2986   0.13166
 3.00000    5.55     3.03   0.08287  3.2986   0.13338
 2.95000    5.56     3.03   0.08268  3.2987   0.13245
 2.90000    5.56     3.01   0.08230  3.2987   0.13243
 2.85000    5.57     3.01   0.08233  3.2988   0.13217
 2.80000    5.57     3.01   0.08238  3.2990   0.13036
 2.75000    5.57     3.01   0.08242  3.2990   0.13206
 2.70000    5.57     3.02   0.08229  3.2990   0.13228
 2.65000    5.57     3.01   0.08229  3.2990   0.13288
 2.60000    5.57     3.01   0.08230  3.2989   0.13220
 2.55000    5.57     3.01   0.08227  3.2990   0.13233
 2.50000    5.58     3.01   0.08234  3.2988   0.13212
 2.45000    5.58     3.02   0.08240  3.2990   0.13356
 2.40000    5.58     3.01   0.08270  3.2990   0.13297
 2.35000    5.58     3.00   0.08237  3.2989   0.13327
 2.30000    5.58     3.01   0.08202  3.2988   0.13321
 2.25000    5.58     3.00   0.08176  3.2990   0.13320
 2.20000    5.59     3.03   0.08150  3.2993   0.13335
 2.15000    5.59     3.02   0.08126  3.2999   0.13024
 2.10000    5.59     3.02   0.08137  3.3003   0.13166
 2.05000    5.59     3.00   0.08164  3.3009   0.13269
 2.00000    5.59     3.02   0.08207  3.3010   0.13355
 1.95000    5.60     3.02   0.08240  3.3011   0.13184
 1.90000    5.60     3.00   0.08270  3.3011   0.13264
 1.85000    5.60     3.01   0.08271  3.3009   0.13171
 1.80000    5.60     3.00   0.08272  3.3007   0.13202
 1.75000    5.60     3.02   0.08252  3.3005   0.13140
 1.70000    5.60     3.01   0.08270  3.3003   0.13161
 1.65000    5.60     2.99   0.08287  3.3004   0.13159
 1.60000    5.60     3.00   0.08279  3.3004   0.13175
 1.55000    5.60     3.00   0.08297  3.3004   0.13141
 1.50000    5.59     3.00   0.08321  3.3005   0.13429
 1.45000    5.59     3.01   0.08324  3.3004   0.13278
 1.40000    5.58     3.01   0.08316  3.3003   0.13148
 1.35000    5.58     3.00   0.08316  3.3004   0.13171
 1.30000    5.57     3.00   0.08323  3.3004   0.13285
 1.25000    5.55     3.01   0.08320  3.3003   0.13319
 1.20000    5.55     3.00   0.08336  3.3003   0.13030
 1.15000    5.53     3.01   0.08337  3.3003   0.13216
 1.10000    5.52     3.00   0.08363  3.3003   0.13255
 1.05000    5.51     2.99   0.08419  3.3004   0.13343
 1.00000    5.50     2.99   0.08438  3.3003   0.13378
 0.95000    5.49     3.01   0.08368  3.3007   0.13298
 0.90000    5.49     3.00   0.08346  3.3007   0.13272
 0.85000    5.48     3.00   0.08324  3.3007   0.13243
 0.80000    5.47     3.00   0.08296  3.3004   0.13186
 0.75000    5.46     2.99   0.08314  3.3005   0.13209
 0.70000    5.45     2.99   0.08281  3.3006   0.13197
 0.65000    5.44     3.02   0.08287  3.3006   0.13193
 0.60000    5.43     3.00   0.08290  3.3007   0.13167
 0.55000    5.42     3.00   0.08291  3.3006   0.13169
 0.50000    5.40     3.00   0.08287  3.3008   0.13161
 0.45000    5.39     2.99   0.08277  3.3007   0.13159
 0.40000    5.38     2.99   0.08304  3.3008   0.13255
 0.35000    5.38     2.99   0.08276  3.3008   0.13206
 0.30000    5.37     3.00   0.08283  3.3007   0.13095
 0.25000    5.37     3.00   0.08298  3.3007   0.13142
 0.20000    5.36     2.99   0.08308  3.3009   0.13145
 0.15000    5.35     2.99   0.08317  3.3009   0.13194
 0.10000    5.32     2.99   0.08350  3.3010   0.13319
 0.05000    5.30     2.99   0.08309  3.3012   0.13202
-0.00000    5.27     3.00   0.08289  3.3011   0.13220
