 Field[T] Tsmpl[K] Tcntr[K] Signal Mirror[MM] RefSignal
 0.00000    4.90     2.93   0.26602  3.2782   0.23485
 0.05000    4.87     2.92   0.26639  3.2782   0.23476
 0.10000    4.84     2.93   0.26662  3.2780   0.23583
 0.15000    4.82     2.93   0.26665  3.2778   0.23547
 0.20000    4.80     2.93   0.26699  3.2777   0.23530
 0.25000    4.78     2.94   0.26736  3.2776   0.23452
 0.30000    4.77     2.94   0.26759  3.2777   0.23685
 0.35000    4.76     2.93   0.26743  3.2776   0.23659
 0.40000    4.74     2.94   0.26741  3.2775   0.23486
 0.45000    4.73     2.94   0.26760  3.2775   0.23545
 0.50000    4.72     2.95   0.26768  3.2773   0.23605
 0.55000    4.72     2.95   0.26780  3.2773   0.23592
 0.60000    4.71     2.94   0.26822  3.2773   0.23520
 0.65000    4.70     2.95   0.26857  3.2773   0.23559
 0.70000    4.69     2.94   0.26891  3.2773   0.23612
 0.75000    4.69     2.95   0.26875  3.2773   0.23474
 0.80000    4.68     2.96   0.26866  3.2773   0.23598
 0.85000    4.67     2.94   0.26868  3.2771   0.23599
 0.90000    4.66     2.94   0.26880  3.2771   0.23669
 0.95000    4.65     2.94   0.26875  3.2771   0.23592
 1.00000    4.64     2.94   0.26888  3.2769   0.23737
 1.05000    4.63     2.96   0.26900  3.2769   0.23528
 1.10000    4.62     2.94   0.26921  3.2770   0.23584
 1.15000    4.61     2.94   0.27016  3.2769   0.23562
 1.20000    4.60     2.93   0.26988  3.2769   0.23547
 1.25000    4.58     2.93   0.26994  3.2770   0.23485
 1.30000    4.57     2.95   0.26961  3.2768   0.23533
 1.35000    4.57     2.94   0.26967  3.2769   0.23630
 1.40000    4.56     2.94   0.26957  3.2769   0.23540
 1.45000    4.56     2.96   0.26929  3.2770   0.23532
 1.50000    4.57     2.96   0.26942  3.2770   0.23618
 1.55000    4.57     2.95   0.26932  3.2768   0.23521
 1.60000    4.58     2.97   0.26949  3.2769   0.23550
 1.65000    4.59     2.97   0.26939  3.2769   0.23801
 1.70000    4.60     2.97   0.26994  3.2771   0.23750
 1.75000    4.60     2.98   0.26967  3.2772   0.23729
 1.80000    4.61     2.97   0.26900  3.2775   0.23744
 1.85000    4.61     2.97   0.26865  3.2777   0.23796
 1.90000    4.61     2.98   0.26771  3.2780   0.23601
 1.95000    4.61     2.99   0.26647  3.2782   0.23682
 2.00000    4.61     2.99   0.26496  3.2781   0.23745
 2.05000    4.60     2.98   0.26361  3.2777   0.23530
 2.10000    4.60     2.98   0.26273  3.2770   0.23576
 2.15000    4.59     2.99   0.26297  3.2765   0.23792
 2.20000    4.59     2.99   0.26383  3.2761   0.23598
 2.25000    4.60     2.98   0.26425  3.2759   0.23784
 2.30000    4.60     2.99   0.26474  3.2758   0.23666
 2.35000    4.61     2.99   0.26515  3.2757   0.23678
 2.40000    4.61     2.99   0.26558  3.2756   0.23548
 2.45000    4.61     3.01   0.26579  3.2756   0.23609
 2.50000    4.62     3.00   0.26607  3.2756   0.23732
 2.55000    4.62     3.00   0.26637  3.2756   0.23666
 2.60000    4.61     3.00   0.26644  3.2755   0.23864
 2.65000    4.61     3.00   0.26724  3.2755   0.23823
 2.70000    4.62     3.01   0.26670  3.2756   0.23839
 2.75000    4.63     3.00   0.26642  3.2755   0.23922
 2.80000    4.64     3.01   0.26637  3.2756   0.23591
 2.85000    4.65     3.00   0.26613  3.2757   0.23549
 2.90000    4.66     3.01   0.26629  3.2755   0.23596
 2.95000    4.68     3.01   0.26627  3.2754   0.23684
 3.00000    4.68     3.01   0.26671  3.2755   0.23862
 3.05000    4.70     3.00   0.26705  3.2753   0.23750
 3.10000    4.71     3.01   0.26753  3.2753   0.23877
 3.15000    4.72     3.01   0.26781  3.2752   0.23713
 3.20000    4.74     3.02   0.26755  3.2753   0.23632
 3.25000    4.77     3.03   0.26756  3.2754   0.23813
 3.30000    4.79     3.02   0.26754  3.2754   0.23603
 3.35000    4.81     3.03   0.26764  3.2753   0.23638
 3.40000    4.83     3.03   0.26776  3.2753   0.23538
 3.45000    4.84     3.03   0.26818  3.2753   0.23788
 3.50000    4.87     3.04   0.26922  3.2751   0.23878
 3.55000    4.89     3.04   0.26887  3.2751   0.23670
 3.60000    4.91     3.02   0.26846  3.2752   0.23858
 3.65000    4.92     3.03   0.26821  3.2753   0.23831
 3.70000    4.93     3.03   0.26792  3.2752   0.23600
 3.75000    4.95     3.02   0.26801  3.2752   0.23651
 3.80000    4.96     3.03   0.26792  3.2753   0.23551
 3.85000    4.96     3.02   0.26791  3.2755   0.23730
 3.90000    4.96     3.01   0.26810  3.2753   0.23743
 3.95000    4.95     3.01   0.26830  3.2753   0.23601
 4.00000    4.94     3.01   0.26864  3.2753   0.23879
 4.05000    4.94     3.01   0.26888  3.2754   0.23803
 4.10000    4.94     3.02   0.26869  3.2755   0.23776
 4.15000    4.95     3.01   0.26866  3.2755   0.23558
 4.20000    4.96     3.01   0.26856  3.2755   0.23691
 4.25000    4.97     3.01   0.26871  3.2755   0.23510
 4.30000    4.99     3.01   0.26877  3.2756   0.23547
 4.35000    5.00     3.02   0.26880  3.2756   0.23656
 4.40000    5.01     3.01   0.26973  3.2757   0.23751
 4.45000    5.01     3.01   0.26946  3.2758   0.23745
 4.50000    5.02     3.03   0.26916  3.2757   0.23575
 4.55000    5.02     3.01   0.26887  3.2758   0.23627
 4.60000    5.02     3.01   0.26872  3.2758   0.23695
 4.65000    5.01     3.01   0.26847  3.2760   0.23657
 4.70000    5.01     3.01   0.26862  3.2760   0.23830
 4.75000    5.01     3.01   0.26839  3.2761   0.23660
 4.80000    5.00     3.01   0.26863  3.2761   0.23676
 4.85000    4.99     3.01   0.26926  3.2762   0.23704
 4.90000    4.99     3.01   0.26917  3.2761   0.23807
 4.95000    4.98     3.01   0.26902  3.2762   0.23636
 5.00000    4.98     3.02   0.26874  3.2764   0.23764
