 Field[T] Tsmpl[K] Tcntr[K] Signal Mirror[MM] RefSignal
 0.00000    5.26     3.00   1.56379  2.6739   0.33011
 0.05000    5.26     3.01   1.56227  2.6742   0.33136
 0.10000    5.26     3.00   1.56374  2.6743   0.32987
 0.15000    5.26     3.00   1.56531  2.6737   0.33128
 0.20000    5.27     3.00   1.56435  2.6739   0.33114
 0.25000    5.28     3.00   1.56670  2.6734   0.33192
 0.30000    5.29     3.00   1.56711  2.6737   0.33055
 0.35000    5.30     3.00   1.56887  2.6737   0.33241
 0.40000    5.32     3.01   1.57012  2.6738   0.33253
 0.45000    5.34     3.01   1.57049  2.6739   0.33145
 0.50000    5.37     3.01   1.57167  2.6739   0.33128
 0.55000    5.40     3.00   1.57238  2.6743   0.33175
 0.60000    5.43     3.01   1.57333  2.6737   0.33156
 0.65000    5.47     3.01   1.57342  2.6738   0.33132
 0.70000    5.49     3.00   1.57390  2.6736   0.33133
 0.75000    5.51     3.01   1.57414  2.6737   0.33114
 0.80000    5.54     3.02   1.57485  2.6738   0.33172
 0.85000    5.56     3.00   1.57462  2.6735   0.33129
 0.90000    5.58     3.00   1.57452  2.6735   0.33116
 0.95000    5.59     3.00   1.57465  2.6736   0.33331
 1.00000    5.59     3.01   1.57419  2.6736   0.33222
 1.05000    5.58     3.01   1.57440  2.6736   0.33221
 1.10000    5.56     2.99   1.57316  2.6737   0.33259
 1.15000    5.53     2.99   1.57265  2.6736   0.33053
 1.20000    5.50     2.98   1.57196  2.6738   0.33155
 1.25000    5.47     2.98   1.56988  2.6742   0.33059
 1.30000    5.44     2.98   1.56706  2.6741   0.33204
 1.35000    5.42     2.96   1.56138  2.6745   0.33102
 1.40000    5.39     2.95   1.55400  2.6743   0.33052
 1.45000    5.35     2.94   1.54944  2.6742   0.33167
 1.50000    5.31     2.92   1.54060  2.6737   0.33087
 1.55000    5.27     2.92   1.53493  2.6727   0.33200
 1.60000    5.22     2.89   1.53343  2.6716   0.33173
 1.65000    5.17     2.88   1.53750  2.6707   0.33150
 1.70000    5.14     2.90   1.54482  2.6703   0.33051
 1.75000    5.10     2.89   1.55029  2.6700   0.33041
 1.80000    5.07     2.89   1.55525  2.6700   0.33165
 1.85000    5.05     2.90   1.55875  2.6701   0.33193
 1.90000    5.05     2.91   1.56110  2.6700   0.33115
 1.95000    5.04     2.92   1.56250  2.6699   0.33141
 2.00000    5.04     2.92   1.56404  2.6694   0.33215
 2.05000    5.04     2.92   1.56491  2.6695   0.33072
 2.10000    5.04     2.93   1.56681  2.6696   0.33214
 2.15000    5.04     2.93   1.56897  2.6694   0.33059
 2.20000    5.04     2.94   1.57057  2.6690   0.33037
 2.25000    5.04     2.94   1.57310  2.6692   0.33046
 2.30000    5.03     2.94   1.57439  2.6692   0.33222
 2.35000    5.03     2.97   1.57654  2.6694   0.33191
 2.40000    5.03     2.96   1.57894  2.6690   0.33061
 2.45000    5.03     2.96   1.58157  2.6691   0.33282
 2.50000    5.03     2.97   1.58301  2.6692   0.33222
 2.55000    5.03     2.97   1.58485  2.6691   0.33016
 2.60000    5.02     2.97   1.58668  2.6691   0.33077
 2.65000    5.02     2.99   1.58834  2.6688   0.33141
 2.70000    5.01     2.98   1.58916  2.6691   0.32988
 2.75000    5.01     2.99   1.59050  2.6693   0.33048
 2.80000    5.01     2.99   1.59169  2.6694   0.33055
 2.85000    5.01     2.99   1.59276  2.6693   0.33006
 2.90000    5.01     2.99   1.59393  2.6695   0.33236
 2.95000    5.01     3.00   1.59434  2.6696   0.33131
 3.00000    5.02     3.01   1.59490  2.6696   0.33105
 3.05000    5.02     3.00   1.59574  2.6697   0.33134
 3.10000    5.02     3.00   1.59611  2.6696   0.33061
 3.15000    5.02     3.01   1.59534  2.6697   0.33231
 3.20000    5.02     2.99   1.59747  2.6695   0.33096
 3.25000    5.01     3.01   1.59815  2.6693   0.32985
 3.30000    5.01     3.01   1.59925  2.6696   0.33093
 3.35000    5.01     3.01   1.59988  2.6696   0.33082
 3.40000    5.02     3.01   1.60031  2.6700   0.33169
 3.45000    5.04     3.03   1.60064  2.6701   0.33101
 3.50000    5.06     3.02   1.60091  2.6701   0.32940
 3.55000    5.08     3.03   1.60234  2.6699   0.33025
 3.60000    5.09     3.03   1.60240  2.6700   0.33052
 3.65000    5.10     3.04   1.60256  2.6704   0.33037
 3.70000    5.12     3.05   1.60296  2.6704   0.33054
 3.75000    5.13     3.03   1.60293  2.6703   0.32930
 3.80000    5.13     3.04   1.60364  2.6702   0.32949
 3.85000    5.14     3.05   1.60368  2.6704   0.32993
 3.90000    5.14     3.04   1.60445  2.6703   0.33086
 3.95000    5.16     3.04   1.60380  2.6703   0.33031
 4.00000    5.16     3.05   1.60311  2.6706   0.32889
 4.05000    5.17     3.06   1.60488  2.6706   0.32963
 4.10000    5.18     3.03   1.60549  2.6706   0.33171
 4.15000    5.18     3.03   1.60555  2.6706   0.33044
 4.20000    5.18     3.03   1.60554  2.6705   0.32867
 4.25000    5.19     3.02   1.60571  2.6706   0.33084
 4.30000    5.20     3.04   1.60596  2.6707   0.32951
 4.35000    5.20     3.02   1.60684  2.6708   0.33108
 4.40000    5.20     3.02   1.60669  2.6709   0.32946
 4.45000    5.20     3.01   1.60716  2.6709   0.33076
 4.50000    5.19     3.01   1.60724  2.6710   0.33014
 4.55000    5.19     3.02   1.60751  2.6711   0.33071
 4.60000    5.19     3.02   1.60688  2.6709   0.32996
 4.65000    5.19     3.00   1.60638  2.6708   0.32862
 4.70000    5.20     3.01   1.60725  2.6711   0.33041
 4.75000    5.21     3.00   1.60714  2.6713   0.32916
 4.80000    5.22     3.00   1.60811  2.6714   0.33028
 4.85000    5.24     3.02   1.60769  2.6714   0.33014
 4.90000    5.26     3.01   1.60795  2.6712   0.32986
 4.95000    5.27     3.01   1.60877  2.6712   0.32918
 5.00000    5.28     3.01   1.60896  2.6712   0.32961
