 Field[T] Tsmpl[K] Tcntr[K] Signal Mirror[MM] RefSignal
 4.00000    5.14     3.05   1.06626  3.3110   1.27311
 3.95000    5.16     3.05   1.06656  3.3111   1.27259
 3.90000    5.17     3.07   1.06765  3.3110   1.27344
 3.85000    5.19     3.07   1.06717  3.3110   1.27185
 3.80000    5.21     3.06   1.06652  3.3110   1.27240
 3.75000    5.22     3.07   1.06718  3.3109   1.27080
 3.70000    5.24     3.07   1.06683  3.3109   1.27105
 3.65000    5.26     3.07   1.06641  3.3110   1.27217
 3.60000    5.28     3.09   1.06667  3.3109   1.27052
 3.55000    5.31     3.09   1.06767  3.3110   1.27265
 3.50000    5.33     3.08   1.06712  3.3111   1.27204
 3.45000    5.35     3.09   1.06654  3.3109   1.27140
 3.40000    5.37     3.09   1.06600  3.3108   1.27039
 3.35000    5.39     3.09   1.06556  3.3107   1.27182
 3.30000    5.41     3.09   1.06532  3.3107   1.26957
 3.25000    5.43     3.08   1.06572  3.3104   1.27014
 3.20000    5.45     3.08   1.06677  3.3106   1.27260
 3.15000    5.47     3.08   1.06757  3.3104   1.27234
 3.10000    5.49     3.09   1.06615  3.3104   1.27274
 3.05000    5.51     3.07   1.06493  3.3104   1.26942
 3.00000    5.52     3.07   1.06434  3.3105   1.26900
 2.95000    5.53     3.07   1.06400  3.3101   1.26933
 2.90000    5.54     3.07   1.06387  3.3102   1.26811
 2.85000    5.55     3.08   1.06343  3.3102   1.26816
 2.80000    5.56     3.06   1.06393  3.3101   1.26786
 2.75000    5.57     3.06   1.06483  3.3102   1.26918
 2.70000    5.57     3.05   1.06405  3.3101   1.27002
 2.65000    5.57     3.05   1.06286  3.3102   1.26870
 2.60000    5.58     3.04   1.06170  3.3102   1.26796
 2.55000    5.58     3.05   1.06114  3.3101   1.26854
 2.50000    5.59     3.04   1.06051  3.3099   1.26916
 2.45000    5.59     3.03   1.06013  3.3099   1.26722
 2.40000    5.59     3.03   1.06078  3.3101   1.27005
 2.35000    5.59     3.03   1.06110  3.3101   1.26989
 2.30000    5.58     3.03   1.05996  3.3101   1.26928
 2.25000    5.58     3.02   1.05806  3.3102   1.26729
 2.20000    5.58     3.02   1.05623  3.3100   1.26730
 2.15000    5.58     3.03   1.05529  3.3102   1.26755
 2.10000    5.58     3.01   1.05562  3.3102   1.26838
 2.05000    5.57     3.01   1.05611  3.3103   1.26952
 2.00000    5.57     3.01   1.05565  3.3104   1.26985
 1.95000    5.56     3.01   1.05573  3.3104   1.26951
 1.90000    5.56     3.02   1.05586  3.3105   1.26955
 1.85000    5.55     3.01   1.05489  3.3106   1.26895
 1.80000    5.55     3.00   1.05393  3.3105   1.27001
 1.75000    5.54     3.00   1.05176  3.3105   1.27055
 1.70000    5.54     3.01   1.04895  3.3108   1.27036
 1.65000    5.53     3.02   1.04576  3.3111   1.26924
 1.60000    5.53     3.00   1.04269  3.3118   1.26832
 1.55000    5.52     3.00   1.04143  3.3123   1.26801
 1.50000    5.52     3.00   1.04256  3.3132   1.26522
 1.45000    5.51     3.00   1.04637  3.3137   1.26557
 1.40000    5.50     3.01   1.05007  3.3139   1.26371
 1.35000    5.50     3.01   1.05342  3.3138   1.26397
 1.30000    5.49     2.99   1.05597  3.3137   1.26389
 1.25000    5.49     2.99   1.05861  3.3138   1.26193
 1.20000    5.48     3.00   1.05979  3.3136   1.26335
 1.15000    5.47     3.00   1.06076  3.3134   1.26367
 1.10000    5.47     3.01   1.06143  3.3134   1.26210
 1.05000    5.47     2.99   1.06254  3.3135   1.26269
 1.00000    5.47     2.98   1.06342  3.3134   1.26338
 0.95000    5.46     3.00   1.06465  3.3134   1.26425
 0.90000    5.46     3.01   1.06518  3.3135   1.26313
 0.85000    5.45     3.01   1.06526  3.3133   1.26242
 0.80000    5.45     3.00   1.06543  3.3132   1.26281
 0.75000    5.44     2.99   1.06565  3.3136   1.26330
 0.70000    5.43     3.00   1.06612  3.3133   1.26325
 0.65000    5.42     3.00   1.06670  3.3136   1.26298
 0.60000    5.41     2.99   1.06760  3.3134   1.26404
 0.55000    5.40     3.00   1.06782  3.3136   1.26206
 0.50000    5.39     3.00   1.06771  3.3137   1.26119
 0.45000    5.39     3.01   1.06742  3.3137   1.26170
 0.40000    5.38     2.99   1.06741  3.3136   1.26241
 0.35000    5.37     2.99   1.06765  3.3138   1.26113
 0.30000    5.36     2.99   1.06812  3.3139   1.26165
 0.25000    5.34     2.99   1.06903  3.3139   1.26250
 0.20000    5.33     2.99   1.06882  3.3138   1.26245
 0.15000    5.31     2.98   1.06878  3.3139   1.26149
 0.10000    5.30     2.98   1.06906  3.3141   1.26283
 0.05000    5.27     2.98   1.06875  3.3143   1.26315
-0.00000    5.24     2.98   1.06867  3.3144   1.26342
