 Field[T] Tsmpl[K] Tcntr[K] Signal RefSignal
 0.00000    4.53     2.95   4.94120   2.24900
 0.05000    4.53     2.95   4.94260   2.24992
 0.10000    4.53     2.95   4.94310   2.25003
 0.15000    4.53     2.95   4.94400   2.25380
 0.20000    4.53     2.95   4.94930   2.25449
 0.25000    4.53     2.96   4.95130   2.25482
 0.30000    4.53     2.96   4.94850   2.25482
 0.35000    4.54     2.97   4.95320   2.25909
 0.40000    4.54     2.97   4.95180   2.25679
 0.45000    4.54     2.97   4.95280   2.25712
 0.50000    4.55     2.96   4.94910   2.25862
 0.55000    4.55     2.97   4.94940   2.25967
 0.60000    4.55     2.96   4.94340   2.25680
 0.65000    4.55     2.96   4.94190   2.26115
 0.70000    4.55     2.96   4.93820   2.26008
 0.75000    4.55     2.95   4.93480   2.26189
 0.80000    4.55     2.96   4.93090   2.26065
 0.85000    4.54     2.93   4.92650   2.26135
 0.90000    4.53     2.93   4.92020   2.25956
 0.95000    4.52     2.93   4.91110   2.26136
 1.00000    4.50     2.93   4.90680   2.26188
 1.05000    4.49     2.92   4.89680   2.26204
 1.10000    4.49     2.93   4.88560   2.26359
 1.15000    4.48     2.93   4.87380   2.26213
 1.20000    4.48     2.93   4.85630   2.26350
 1.25000    4.47     2.93   4.83040   2.26246
 1.30000    4.46     2.91   4.79500   2.26401
 1.35000    4.45     2.92   4.74670   2.26389
 1.40000    4.44     2.92   4.68750   2.26493
 1.45000    4.43     2.92   4.62080   2.26453
 1.50000    4.43     2.90   4.58970   2.26213
 1.55000    4.42     2.92   4.60260   2.26612
 1.60000    4.41     2.92   4.63760   2.26704
 1.65000    4.41     2.93   4.67550   2.26564
 1.70000    4.41     2.93   4.70800   2.26733
 1.75000    4.41     2.93   4.73170   2.26495
 1.80000    4.41     2.93   4.74670   2.26807
 1.85000    4.42     2.94   4.75390   2.26833
 1.90000    4.42     2.95   4.76190   2.26783
 1.95000    4.42     2.95   4.76830   2.26949
 2.00000    4.42     2.96   4.77840   2.26890
 2.05000    4.42     2.95   4.78660   2.26988
 2.10000    4.42     2.96   4.80220   2.26934
 2.15000    4.42     2.97   4.81680   2.27084
 2.20000    4.42     2.97   4.82680   2.26858
 2.25000    4.42     2.98   4.84170   2.26868
 2.30000    4.42     2.98   4.85500   2.26989
 2.35000    4.42     2.98   4.86660   2.27142
 2.40000    4.42     2.98   4.87940   2.27376
 2.45000    4.42     2.98   4.89030   2.27268
 2.50000    4.42     2.99   4.89630   2.27132
 2.55000    4.43     2.98   4.90170   2.27088
 2.60000    4.43     2.99   4.90860   2.27080
 2.65000    4.43     2.99   4.91600   2.26933
 2.70000    4.42     3.00   4.92260   2.26964
 2.75000    4.42     2.99   4.92690   2.27078
 2.80000    4.41     2.99   4.93240   2.27054
 2.85000    4.41     3.00   4.93740   2.26936
 2.90000    4.41     3.00   4.94090   2.26985
 2.95000    4.42     2.99   4.95190   2.27066
 3.00000    4.43     3.01   4.95320   2.26840
 3.05000    4.43     3.01   4.95760   2.26898
 3.10000    4.44     3.01   4.95860   2.27035
 3.15000    4.45     3.01   4.96290   2.27042
 3.20000    4.46     3.01   4.96570   2.27037
 3.25000    4.47     3.02   4.97040   2.26906
 3.30000    4.48     3.01   4.97190   2.27079
 3.35000    4.49     3.02   4.97690   2.27045
 3.40000    4.50     3.02   4.97820   2.26855
 3.45000    4.51     3.04   4.97930   2.26939
 3.50000    4.52     3.03   4.98060   2.27095
 3.55000    4.53     3.04   4.98300   2.26865
 3.60000    4.54     3.04   4.98650   2.27121
 3.65000    4.56     3.03   4.98960   2.27022
 3.70000    4.57     3.04   4.99010   2.27008
 3.75000    4.58     3.05   4.99570   2.26969
 3.80000    4.59     3.05   4.99250   2.27008
 3.85000    4.61     3.05   4.99230   2.27075
 3.90000    4.63     3.06   4.99590   2.27064
 3.95000    4.66     3.05   4.99820   2.26964
 4.00000    4.68     3.05   4.99810   2.27129
