 Field[T] Tsmpl[K] Tcntr[K] Signal RefSignal
 0.00000    4.93     2.97   2.27410   2.29277
 0.05000    4.92     2.98   2.27430   2.29451
 0.10000    4.90     2.97   2.27630   2.29390
 0.15000    4.89     2.98   2.27430   2.29515
 0.20000    4.87     2.97   2.27060   2.29454
 0.25000    4.86     2.96   2.27140   2.29386
 0.30000    4.85     2.96   2.27200   2.29616
 0.35000    4.83     2.96   2.26940   2.29368
 0.40000    4.82     2.95   2.26340   2.29437
 0.45000    4.79     2.94   2.26480   2.29530
 0.50000    4.80     2.94   2.26230   2.29405
 0.55000    4.79     2.93   2.26100   2.29376
 0.60000    4.76     2.92   2.25720   2.29319
 0.65000    4.73     2.92   2.25540   2.29266
 0.70000    4.71     2.91   2.25150   2.29262
 0.75000    4.68     2.92   2.25090   2.29405
 0.80000    4.66     2.91   2.24820   2.29310
 0.85000    4.65     2.91   2.24420   2.29320
 0.90000    4.63     2.91   2.24130   2.29280
 0.95000    4.62     2.90   2.23780   2.29295
 1.00000    4.61     2.90   2.23560   2.29206
 1.05000    4.60     2.91   2.22550   2.29423
 1.10000    4.59     2.90   2.22660   2.29181
 1.15000    4.58     2.91   2.21510   2.29282
 1.20000    4.57     2.91   2.20800   2.29302
 1.25000    4.57     2.92   2.19740   2.29290
 1.30000    4.56     2.92   2.17990   2.29262
 1.35000    4.56     2.92   2.15550   2.29263
 1.40000    4.55     2.92   2.12640   2.29205
 1.45000    4.55     2.92   2.09590   2.29309
 1.50000    4.55     2.93   2.08280   2.29292
 1.55000    4.55     2.93   2.08890   2.29308
 1.60000    4.55     2.94   2.10670   2.29327
 1.65000    4.55     2.93   2.12740   2.29543
 1.70000    4.55     2.94   2.14830   2.29575
 1.75000    4.55     2.94   2.16070   2.29547
 1.80000    4.55     2.95   2.17140   2.29221
 1.85000    4.55     2.95   2.17590   2.29198
 1.90000    4.55     2.95   2.18100   2.29177
 1.95000    4.55     2.95   2.18450   2.29182
 2.00000    4.55     2.96   2.18850   2.29185
 2.05000    4.55     2.95   2.19300   2.29248
 2.10000    4.55     2.95   2.19870   2.29077
 2.15000    4.55     2.95   2.20050   2.29020
 2.20000    4.54     2.97   2.20190   2.28963
 2.25000    4.54     2.96   2.20780   2.29069
 2.30000    4.54     2.96   2.21190   2.29025
 2.35000    4.54     2.97   2.21360   2.28891
 2.40000    4.54     2.96   2.21870   2.28808
 2.45000    4.55     2.96   2.22110   2.29087
 2.50000    4.55     2.97   2.22300   2.28947
 2.55000    4.57     2.97   2.22530   2.28968
 2.60000    4.58     2.99   2.22970   2.28982
 2.65000    4.59     2.99   2.23170   2.28987
 2.70000    4.61     2.99   2.23410   2.28991
 2.75000    4.62     2.99   2.23570   2.28882
 2.80000    4.63     3.00   2.23770   2.28904
 2.85000    4.65     2.99   2.23820   2.28956
 2.90000    4.66     3.00   2.24510   2.29033
 2.95000    4.67     2.99   2.24390   2.28932
 3.00000    4.68     3.00   2.24480   2.28915
 3.05000    4.68     3.00   2.24770   2.28981
 3.10000    4.68     3.00   2.24720   2.28889
 3.15000    4.69     3.01   2.24780   2.29021
 3.20000    4.69     3.00   2.24970   2.28833
 3.25000    4.70     3.01   2.25200   2.28931
 3.30000    4.70     3.00   2.24930   2.28942
 3.35000    4.71     3.01   2.25280   2.28980
 3.40000    4.72     3.01   2.25410   2.29081
 3.45000    4.74     3.01   2.25600   2.29120
 3.50000    4.75     3.01   2.25850   2.29353
 3.55000    4.76     3.01   2.25520   2.28981
 3.60000    4.77     3.01   2.25820   2.28993
 3.65000    4.78     3.01   2.25660   2.28725
 3.70000    4.79     3.01   2.25750   2.28798
 3.75000    4.80     3.01   2.26330   2.29068
 3.80000    4.82     3.02   2.25840   2.29070
 3.85000    4.83     3.02   2.26160   2.28852
 3.90000    4.84     3.02   2.25840   2.28991
 3.95000    4.86     3.02   2.25910   2.28921
 4.00000    4.87     3.03   2.26390   2.28869
