 Field[T] Tsmpl[K] Tcntr[K] Signal RefSignal
 4.00000    4.98     3.04   2.40640   2.27889
 3.95000    4.98     3.05   2.40500   2.27655
 3.90000    4.98     3.05   2.40460   2.27734
 3.85000    4.99     3.04   2.40310   2.27601
 3.80000    4.99     3.05   2.40040   2.27501
 3.75000    5.00     3.06   2.40160   2.27516
 3.70000    5.01     3.05   2.39840   2.27557
 3.65000    5.02     3.06   2.39890   2.27756
 3.60000    5.03     3.06   2.39910   2.27704
 3.55000    5.05     3.06   2.39630   2.27660
 3.50000    5.06     3.06   2.39550   2.27659
 3.45000    5.07     3.07   2.39670   2.27456
 3.40000    5.08     3.07   2.39510   2.27568
 3.35000    5.10     3.07   2.39230   2.27596
 3.30000    5.11     3.07   2.39070   2.27709
 3.25000    5.09     3.07   2.39090   2.27638
 3.20000    5.11     3.07   2.38930   2.27852
 3.15000    5.13     3.07   2.38790   2.27828
 3.10000    5.16     3.08   2.38640   2.27811
 3.05000    5.18     3.07   2.38480   2.27875
 3.00000    5.21     3.07   2.38300   2.27854
 2.95000    5.23     3.08   2.38010   2.27909
 2.90000    5.25     3.07   2.37880   2.27753
 2.85000    5.26     3.08   2.37820   2.28054
 2.80000    5.28     3.08   2.37310   2.28141
 2.75000    5.30     3.07   2.37150   2.28122
 2.70000    5.31     3.08   2.36560   2.28074
 2.65000    5.33     3.07   2.36210   2.28068
 2.60000    5.34     3.08   2.35930   2.28236
 2.55000    5.35     3.07   2.35730   2.28394
 2.50000    5.36     3.07   2.35050   2.28414
 2.45000    5.38     3.06   2.34990   2.28323
 2.40000    5.38     3.07   2.34260   2.28592
 2.35000    5.39     3.06   2.33580   2.28410
 2.30000    5.40     3.06   2.32880   2.28420
 2.25000    5.41     3.06   2.32100   2.28059
 2.20000    5.41     3.06   2.31370   2.28314
 2.15000    5.42     3.06   2.30660   2.28323
 2.10000    5.42     3.05   2.29770   2.28206
 2.05000    5.42     3.05   2.29240   2.28267
 2.00000    5.42     3.05   2.28530   2.28273
 1.95000    5.41     3.04   2.27940   2.28077
 1.90000    5.41     3.04   2.27680   2.28689
 1.85000    5.40     3.04   2.27230   2.28296
 1.80000    5.39     3.03   2.27780   2.28561
 1.75000    5.39     3.03   2.27160   2.28356
 1.70000    5.38     3.03   2.26910   2.28283
 1.65000    5.37     3.03   2.25380   2.28468
 1.60000    5.36     3.02   2.24330   2.28450
 1.55000    5.35     3.02   2.22920   2.28409
 1.50000    5.35     3.02   2.22400   2.28310
 1.45000    5.35     3.02   2.23620   2.28434
 1.40000    5.34     3.02   2.26200   2.28720
 1.35000    5.33     3.01   2.29040   2.28501
 1.30000    5.32     3.01   2.31230   2.28877
 1.25000    5.32     3.01   2.32930   2.28724
 1.20000    5.31     3.01   2.34000   2.28872
 1.15000    5.31     3.01   2.34770   2.28934
 1.10000    5.30     3.01   2.35400   2.28770
 1.05000    5.30     3.00   2.36260   2.28961
 1.00000    5.30     3.00   2.37040   2.29061
 0.95000    5.30     3.00   2.37210   2.29030
 0.90000    5.29     3.00   2.37450   2.28951
 0.85000    5.29     3.00   2.37720   2.29089
 0.80000    5.28     3.00   2.37890   2.28885
 0.75000    5.28     3.01   2.38020   2.29115
 0.70000    5.28     3.00   2.38730   2.29128
 0.65000    5.27     3.00   2.38260   2.29237
 0.60000    5.26     3.00   2.38590   2.29270
 0.55000    5.25     3.00   2.38440   2.29230
 0.50000    5.24     3.00   2.38870   2.29209
 0.45000    5.22     3.00   2.39210   2.29338
 0.40000    5.20     3.00   2.39100   2.29213
 0.35000    5.18     2.99   2.39080   2.29211
 0.30000    5.18     3.00   2.39160   2.29196
 0.25000    5.14     2.99   2.39130   2.29452
 0.20000    5.12     2.99   2.39240   2.29478
 0.15000    5.09     2.99   2.39300   2.29498
 0.10000    5.07     2.98   2.39470   2.29719
 0.05000    5.05     2.99   2.39510   2.29682
-0.00000    5.04     2.99   2.39260   2.29465
