 Field[T] Tsmpl[K] Tcntr[K] Signal RefSignal
 0.00000    4.86     2.95   5.58100   7.49525
 0.05000    4.84     2.94   5.58550   7.48677
 0.10000    4.81     2.93   5.58660   7.48745
 0.15000    4.78     2.92   5.59030   7.48527
 0.20000    4.76     2.91   5.58710   7.48257
 0.25000    4.73     2.90   5.59140   7.47873
 0.30000    4.74     2.91   5.59290   7.47567
 0.35000    4.72     2.90   5.59520   7.47139
 0.40000    4.69     2.89   5.59510   7.46733
 0.45000    4.66     2.90   5.59310   7.46444
 0.50000    4.64     2.88   5.59420   7.46580
 0.55000    4.61     2.89   5.59040   7.46652
 0.60000    4.59     2.88   5.59160   7.46445
 0.65000    4.57     2.88   5.58770   7.46242
 0.70000    4.56     2.88   5.59010   7.46058
 0.75000    4.54     2.87   5.58350   7.45336
 0.80000    4.53     2.87   5.57760   7.45348
 0.85000    4.52     2.87   5.57640   7.44833
 0.90000    4.50     2.88   5.57210   7.45190
 0.95000    4.50     2.87   5.56600   7.45275
 1.00000    4.48     2.88   5.56000   7.44988
 1.05000    4.47     2.87   5.55010   7.44841
 1.10000    4.46     2.87   5.54010   7.44550
 1.15000    4.45     2.88   5.53100   7.44638
 1.20000    4.43     2.87   5.51870   7.43955
 1.25000    4.42     2.88   5.50840   7.44098
 1.30000    4.41     2.87   5.49730   7.43636
 1.35000    4.40     2.88   5.48980   7.43603
 1.40000    4.39     2.88   5.48290   7.43951
 1.45000    4.38     2.89   5.47500   7.44004
 1.50000    4.37     2.89   5.46790   7.43406
 1.55000    4.36     2.89   5.46340   7.43467
 1.60000    4.36     2.90   5.46290   7.43301
 1.65000    4.36     2.91   5.46330   7.43208
 1.70000    4.36     2.92   5.46340   7.42985
 1.75000    4.36     2.92   5.46740   7.42993
 1.80000    4.36     2.92   5.47690   7.43160
 1.85000    4.36     2.93   5.48070   7.42833
 1.90000    4.37     2.93   5.48750   7.42608
 1.95000    4.37     2.93   5.49310   7.42684
 2.00000    4.38     2.93   5.50020   7.42762
 2.05000    4.38     2.94   5.50640   7.42583
 2.10000    4.39     2.94   5.51440   7.42405
 2.15000    4.41     2.95   5.52360   7.42234
 2.20000    4.41     2.95   5.52970   7.42292
 2.25000    4.41     2.95   5.53640   7.42116
 2.30000    4.41     2.96   5.54760   7.42238
 2.35000    4.42     2.96   5.55360   7.41965
 2.40000    4.42     2.97   5.55960   7.41760
 2.45000    4.42     2.96   5.57020   7.41756
 2.50000    4.43     2.97   5.57640   7.41637
 2.55000    4.43     2.97   5.58330   7.41651
 2.60000    4.44     2.98   5.58840   7.41292
 2.65000    4.44     2.98   5.59390   7.41086
 2.70000    4.44     2.99   5.60240   7.41213
 2.75000    4.45     2.99   5.60490   7.41438
 2.80000    4.46     2.98   5.61560   7.41299
 2.85000    4.47     2.99   5.61920   7.40795
 2.90000    4.48     2.99   5.62640   7.40782
 2.95000    4.49     2.99   5.63070   7.40552
 3.00000    4.49     3.00   5.63550   7.40842
 3.05000    4.50     2.99   5.64220   7.40822
 3.10000    4.50     2.99   5.64820   7.40550
 3.15000    4.51     2.99   5.65200   7.40568
 3.20000    4.51     2.99   5.65410   7.40703
 3.25000    4.51     3.00   5.65610   7.40508
 3.30000    4.51     3.00   5.66380   7.40529
 3.35000    4.51     3.00   5.66960   7.40746
 3.40000    4.52     3.00   5.67150   7.40100
 3.45000    4.54     3.00   5.67220   7.40118
 3.50000    4.55     3.00   5.67770   7.40388
 3.55000    4.56     3.01   5.68520   7.40417
 3.60000    4.57     3.01   5.68680   7.40025
 3.65000    4.59     3.01   5.68760   7.40265
 3.70000    4.60     3.02   5.69240   7.39650
 3.75000    4.62     3.02   5.69480   7.40057
 3.80000    4.63     3.01   5.69830   7.40187
 3.85000    4.64     3.02   5.70840   7.40182
 3.90000    4.66     3.02   5.70320   7.40132
 3.95000    4.67     3.02   5.70660   7.39722
 4.00000    4.68     3.01   5.70870   7.39797
