 Field[T] Tsmpl[K] Tcntr[K] Signal RefSignal
 4.00000    4.75     3.03   3.00990   7.39669
 3.95000    4.75     3.04   3.00730   7.39817
 3.90000    4.77     3.04   3.00750   7.40050
 3.85000    4.78     3.05   3.00630   7.40052
 3.80000    4.79     3.06   3.00500   7.40163
 3.75000    4.80     3.06   3.00340   7.39731
 3.70000    4.82     3.07   3.00390   7.40190
 3.65000    4.84     3.08   3.00020   7.39703
 3.60000    4.86     3.08   2.99980   7.39826
 3.55000    4.88     3.09   2.99850   7.40009
 3.50000    4.90     3.09   2.99730   7.39826
 3.45000    4.92     3.10   2.99470   7.40022
 3.40000    4.93     3.10   2.99440   7.40364
 3.35000    4.95     3.10   2.99280   7.40507
 3.30000    4.96     3.10   2.98890   7.40034
 3.25000    4.98     3.10   2.98830   7.40321
 3.20000    4.99     3.10   2.98830   7.40902
 3.15000    5.01     3.11   2.98310   7.40436
 3.10000    5.01     3.09   2.98200   7.40453
 3.05000    5.00     3.09   2.97970   7.40879
 3.00000    5.04     3.10   2.97890   7.40834
 2.95000    5.08     3.10   2.97520   7.41143
 2.90000    5.06     3.08   2.97480   7.40897
 2.85000    5.08     3.09   2.97040   7.41044
 2.80000    5.10     3.09   2.96840   7.41474
 2.75000    5.09     3.08   2.96420   7.40979
 2.70000    5.11     3.08   2.96330   7.41032
 2.65000    5.12     3.08   2.96020   7.41107
 2.60000    5.13     3.08   2.95590   7.41058
 2.55000    5.15     3.08   2.95210   7.41238
 2.50000    5.17     3.07   2.95020   7.41378
 2.45000    5.20     3.08   2.94810   7.41201
 2.40000    5.20     3.06   2.94040   7.40913
 2.35000    5.20     3.07   2.93720   7.41295
 2.30000    5.20     3.06   2.93250   7.40843
 2.25000    5.21     3.06   2.92940   7.41556
 2.20000    5.22     3.06   2.92490   7.41165
 2.15000    5.23     3.06   2.91850   7.41049
 2.10000    5.24     3.05   2.91500   7.41197
 2.05000    5.24     3.05   2.91040   7.41339
 2.00000    5.24     3.04   2.90680   7.41430
 1.95000    5.25     3.04   2.89960   7.41659
 1.90000    5.25     3.04   2.89520   7.41643
 1.85000    5.25     3.04   2.89240   7.41466
 1.80000    5.25     3.04   2.88580   7.41820
 1.75000    5.26     3.04   2.87980   7.41980
 1.70000    5.26     3.04   2.87720   7.41897
 1.65000    5.26     3.04   2.87610   7.42222
 1.60000    5.26     3.03   2.87310   7.42450
 1.55000    5.26     3.03   2.87200   7.41822
 1.50000    5.26     3.02   2.87370   7.42210
 1.45000    5.25     3.02   2.87900   7.41890
 1.40000    5.24     3.03   2.89130   7.42222
 1.35000    5.23     3.01   2.90050   7.41868
 1.30000    5.22     3.01   2.90970   7.42315
 1.25000    5.21     3.01   2.91840   7.41988
 1.20000    5.21     3.01   2.92740   7.42651
 1.15000    5.20     3.01   2.92930   7.42739
 1.10000    5.22     3.02   2.93280   7.42383
 1.05000    5.18     2.99   2.93330   7.42727
 1.00000    5.16     3.01   2.94000   7.43174
 0.95000    5.14     3.00   2.94160   7.42666
 0.90000    5.13     3.01   2.94220   7.42889
 0.85000    5.11     3.00   2.94600   7.43267
 0.80000    5.09     3.01   2.94900   7.43229
 0.75000    5.08     3.00   2.95400   7.43260
 0.70000    5.06     3.00   2.95470   7.43534
 0.65000    5.05     3.00   2.95730   7.42954
 0.60000    5.03     3.00   2.96220   7.43074
 0.55000    5.01     3.00   2.96200   7.43364
 0.50000    5.00     2.99   2.96540   7.43664
 0.45000    4.99     3.00   2.96740   7.43891
 0.40000    4.98     3.00   2.97080   7.43784
 0.35000    4.96     2.98   2.97080   7.43515
 0.30000    4.94     3.00   2.96960   7.43146
 0.25000    4.92     2.99   2.97300   7.43619
 0.20000    4.91     2.99   2.97220   7.43483
 0.15000    4.89     2.99   2.97580   7.43689
 0.10000    4.87     2.99   2.97530   7.43552
 0.05000    4.86     2.99   2.97710   7.43857
-0.00000    4.84     2.98   2.97730   7.44111
