 Field[T] Tsmpl[K] Tcntr[K] Signal   Mirror[MM]
 0.00000    1.84     1.86   0.04302  2.4752
 0.05000    1.84     1.86   0.04313  2.4754
 0.10000    1.84     1.86   0.04317  2.4749
 0.15000    1.84     1.86   0.04335  2.4752
 0.20000    1.84     1.86   0.04329  2.4748
 0.25000    1.84     1.86   0.04335  2.4745
 0.30000    1.84     1.86   0.04346  2.4741
 0.35000    1.84     1.86   0.04384  2.4739
 0.40000    1.84     1.86   0.04407  2.4727
 0.45000    1.84     1.86   0.04423  2.4720
 0.50000    1.84     1.86   0.04452  2.4720
 0.55000    1.84     1.86   0.04487  2.4712
 0.60000    1.84     1.86   0.04509  2.4703
 0.65000    1.84     1.86   0.04549  2.4695
 0.70000    1.84     1.86   0.04562  2.4693
 0.75000    1.84     1.86   0.04582  2.4689
 0.80000    1.84     1.86   0.04611  2.4679
 0.85000    1.84     1.86   0.04647  2.4677
 0.90000    1.84     1.86   0.04678  2.4658
 0.95000    1.84     1.86   0.04711  2.4657
 1.00000    1.84     1.86   0.04742  2.4652
 1.05000    1.84     1.86   0.04772  2.4643
 1.10000    1.84     1.86   0.04793  2.4634
 1.15000    1.84     1.86   0.04811  2.4627
 1.20000    1.84     1.86   0.04870  2.4622
 1.25000    1.84     1.86   0.04898  2.4617
 1.30000    1.84     1.86   0.04927  2.4613
 1.35000    1.84     1.86   0.04957  2.4611
 1.40000    1.84     1.86   0.04987  2.4603
 1.45000    1.84     1.86   0.05005  2.4596
 1.50000    1.84     1.86   0.05035  2.4592
 1.55000    1.84     1.86   0.05075  2.4590
 1.60000    1.84     1.86   0.05097  2.4584
 1.65000    1.84     1.86   0.05140  2.4580
 1.70000    1.84     1.86   0.05159  2.4576
 1.75000    1.84     1.87   0.05189  2.4575
 1.80000    1.84     1.87   0.05217  2.4571
 1.85000    1.84     1.87   0.05249  2.4570
 1.90000    1.84     1.87   0.05264  2.4568
 1.95000    1.84     1.87   0.05305  2.4565
 2.00000    1.84     1.87   0.05346  2.4562
 2.00000    1.84     1.87   0.05351  2.4564
 1.95000    1.84     1.87   0.05338  2.4565
 1.90000    1.84     1.87   0.05309  2.4571
 1.85000    1.84     1.87   0.05298  2.4572
 1.80000    1.84     1.87   0.05273  2.4569
 1.75000    1.84     1.87   0.05237  2.4576
 1.70000    1.84     1.87   0.05217  2.4580
 1.65000    1.84     1.87   0.05209  2.4582
 1.60000    1.84     1.87   0.05182  2.4585
 1.55000    1.84     1.87   0.05163  2.4600
 1.50000    1.84     1.86   0.05151  2.4599
 1.45000    1.84     1.86   0.05092  2.4601
 1.40000    1.83     1.85   0.05035  2.4608
 1.35000    1.83     1.85   0.05008  2.4608
 1.30000    1.83     1.84   0.04981  2.4609
 1.25000    1.82     1.84   0.04944  2.4610
 1.20000    1.82     1.83   0.04932  2.4618
 1.15000    1.82     1.83   0.04896  2.4632
 1.10000    1.81     1.83   0.04868  2.4639
 1.05000    1.81     1.82   0.04835  2.4645
 1.00000    1.80     1.82   0.04819  2.4652
 0.95000    1.80     1.82   0.04782  2.4661
 0.90000    1.80     1.82   0.04757  2.4666
 0.85000    1.80     1.81   0.04705  2.4674
 0.80000    1.79     1.81   0.04710  2.4684
 0.75000    1.79     1.81   0.04701  2.4698
 0.70000    1.79     1.80   0.04659  2.4703
 0.65000    1.79     1.80   0.04637  2.4707
 0.60000    1.79     1.80   0.04609  2.4710
 0.55000    1.78     1.80   0.04567  2.4725
 0.50000    1.78     1.80   0.04535  2.4733
 0.45000    1.78     1.79   0.04508  2.4734
 0.40000    1.78     1.79   0.04479  2.4738
 0.35000    1.78     1.79   0.04476  2.4743
 0.30000    1.77     1.79   0.04462  2.4748
 0.25000    1.77     1.79   0.04455  2.4750
 0.20000    1.77     1.79   0.04434  2.4759
 0.15000    1.77     1.78   0.04413  2.4760
 0.10000    1.77     1.78   0.04408  2.4763
 0.05000    1.77     1.78   0.04408  2.4766
-0.00000    1.76     1.78   0.04384  2.4762
