 Field[T] Tsmpl[K] Tcntr[K] Signal   Mirror[MM]
 0.00000    5.45     3.19   0.81548  5.5430
 0.05000    5.44     3.20   0.80584  5.5434
 0.10000    5.43     3.20   0.79649  5.5435
 0.15000    5.43     3.21   0.78487  5.5437
 0.20000    5.43     3.20   0.77444  5.5440
 0.25000    5.42     3.19   0.76688  5.5440
 0.30000    5.41     3.21   0.75912  5.5445
 0.35000    5.41     3.20   0.75193  5.5450
 0.40000    5.39     3.19   0.74452  5.5451
 0.45000    5.38     3.20   0.73669  5.5460
 0.50000    5.37     3.21   0.73161  5.5461
 0.55000    5.36     3.19   0.73190  5.5465
 0.60000    5.34     3.19   0.72766  5.5450
 0.65000    5.33     3.19   0.71552  5.5450
 0.70000    5.31     3.19   0.70998  5.5456
 0.75000    5.31     3.20   0.70521  5.5465
 0.80000    5.29     3.18   0.70049  5.5465
 0.85000    5.28     3.19   0.69621  5.5470
 0.90000    5.28     3.18   0.69224  5.5475
 0.95000    5.27     3.20   0.68870  5.5475
 1.00000    5.26     3.18   0.68518  5.5475
 1.05000    5.26     3.19   0.68169  5.5475
 1.10000    5.25     3.20   0.67798  5.5475
 1.15000    5.25     3.18   0.67545  5.5479
 1.20000    5.25     3.19   0.67179  5.5485
 1.25000    5.25     3.18   0.66904  5.5485
 1.30000    5.24     3.21   0.66617  5.5485
 1.35000    5.25     3.19   0.66381  5.5485
 1.40000    5.25     3.20   0.66177  5.5485
 1.45000    5.25     3.20   0.65908  5.5480
 1.50000    5.26     3.20   0.65701  5.5480
 1.55000    5.27     3.21   0.65452  5.5480
 1.60000    5.27     3.20   0.65232  5.5480
 1.65000    5.28     3.19   0.65091  5.5480
 1.70000    5.28     3.21   0.65023  5.5480
 1.75000    5.28     3.20   0.64967  5.5475
 1.80000    5.27     3.19   0.64809  5.5478
 1.85000    5.26     3.19   0.64644  5.5480
 1.90000    5.25     3.19   0.64470  5.5485
 1.95000    5.25     3.21   0.64235  5.5485
 2.00000    5.25     3.19   0.64060  5.5485
 2.05000    5.24     3.19   0.63928  5.5485
 2.10000    5.24     3.19   0.63830  5.5480
 2.15000    5.24     3.20   0.63846  5.5480
 2.20000    5.24     3.20   0.63778  5.5480
 2.25000    5.24     3.20   0.63675  5.5480
 2.30000    5.24     3.19   0.63588  5.5480
 2.35000    5.24     3.21   0.63548  5.5475
 2.40000    5.24     3.20   0.63494  5.5471
 2.45000    5.24     3.20   0.63320  5.5470
 2.50000    5.24     3.20   0.63277  5.5470
 2.55000    5.23     3.21   0.63280  5.5460
 2.60000    5.22     3.20   0.63367  5.5460
 2.65000    5.22     3.20   0.63522  5.5455
 2.70000    5.22     3.20   0.63392  5.5460
 2.75000    5.22     3.21   0.63273  5.5460
 2.80000    5.24     3.20   0.63262  5.5460
 2.85000    5.24     3.20   0.63333  5.5460
 2.90000    5.24     3.20   0.63355  5.5460
 2.95000    5.24     3.21   0.63279  5.5460
 3.00000    5.24     3.20   0.63240  5.5465
 3.05000    5.24     3.20   0.63344  5.5460
 3.10000    5.25     3.21   0.63259  5.5468
 3.15000    5.25     3.21   0.63286  5.5470
 3.20000    5.26     3.20   0.63276  5.5475
 3.25000    5.26     3.22   0.63266  5.5475
 3.30000    5.27     3.20   0.63326  5.5475
 3.35000    5.28     3.21   0.63319  5.5475
 3.40000    5.29     3.21   0.63229  5.5480
 3.45000    5.30     3.21   0.63242  5.5480
 3.50000    5.32     3.20   0.63223  5.5485
 3.55000    5.32     3.20   0.63288  5.5485
 3.60000    5.33     3.20   0.63218  5.5485
 3.65000    5.34     3.22   0.63131  5.5485
 3.70000    5.36     3.20   0.63069  5.5485
 3.75000    5.37     3.21   0.63068  5.5490
 3.80000    5.37     3.21   0.63005  5.5490
 3.85000    5.38     3.21   0.62976  5.5490
 3.90000    5.39     3.20   0.62985  5.5495
 3.95000    5.39     3.20   0.62909  5.5495
 4.00000    5.39     3.20   0.62898  5.5500
 4.05000    5.40     3.21   0.62860  5.5500
 4.10000    5.40     3.21   0.62821  5.5500
 4.15000    5.40     3.20   0.62784  5.5500
 4.20000    5.41     3.20   0.62737  5.5500
 4.25000    5.41     3.20   0.62688  5.5500
 4.30000    5.41     3.20   0.62672  5.5500
 4.35000    5.42     3.20   0.62631  5.5505
 4.40000    5.42     3.21   0.62593  5.5505
 4.45000    5.42     3.19   0.62585  5.5505
 4.50000    5.42     3.22   0.62576  5.5505
 4.55000    5.42     3.20   0.62571  5.5505
 4.60000    5.41     3.20   0.62515  5.5505
 4.65000    5.41     3.20   0.62444  5.5510
 4.70000    5.41     3.21   0.62423  5.5510
 4.75000    5.41     3.21   0.62394  5.5510
 4.80000    5.41     3.20   0.62393  5.5510
 4.85000    5.41     3.20   0.62369  5.5510
 4.90000    5.41     3.20   0.62290  5.5510
 4.95000    5.41     3.21   0.62318  5.5510
 5.00000    5.40     3.20   0.62298  5.5510
 5.05000    5.40     3.20   0.62283  5.5510
 5.10000    5.40     3.20   0.62263  5.5510
 5.15000    5.40     3.21   0.62191  5.5510
 5.20000    5.40     3.19   0.62221  5.5510
 5.25000    5.40     3.19   0.62201  5.5510
 5.30000    5.40     3.21   0.62164  5.5510
 5.35000    5.40     3.19   0.62107  5.5510
 5.40000    5.41     3.20   0.62115  5.5510
 5.45000    5.41     3.20   0.62103  5.5510
 5.50000    5.42     3.20   0.62093  5.5510
 5.55000    5.43     3.21   0.62096  5.5510
 5.60000    5.43     3.20   0.62092  5.5510
 5.65000    5.43     3.20   0.62038  5.5510
 5.70000    5.44     3.20   0.61984  5.5510
 5.75000    5.44     3.22   0.61927  5.5510
 5.80000    5.45     3.20   0.61976  5.5510
 5.85000    5.45     3.20   0.61921  5.5510
 5.90000    5.46     3.19   0.61854  5.5515
 5.95000    5.46     3.21   0.61822  5.5515
 6.00000    5.47     3.20   0.61760  5.5515
 6.05000    5.47     3.19   0.61798  5.5515
 6.10000    5.46     3.19   0.61824  5.5515
 6.15000    5.46     3.20   0.61780  5.5515
 6.20000    5.46     3.19   0.61749  5.5515
 6.25000    5.46     3.19   0.61711  5.5515
 6.30000    5.47     3.20   0.61734  5.5515
 6.35000    5.48     3.21   0.61671  5.5515
 6.40000    5.50     3.20   0.61713  5.5515
 6.45000    5.51     3.21   0.61678  5.5515
 6.50000    5.53     3.21   0.61688  5.5515
 6.55000    5.54     3.21   0.61674  5.5515
 6.60000    5.56     3.20   0.61708  5.5515
 6.65000    5.57     3.21   0.61624  5.5515
 6.70000    5.59     3.20   0.61572  5.5515
 6.75000    5.60     3.21   0.61547  5.5515
 6.80000    5.62     3.21   0.61521  5.5515
 6.85000    5.63     3.21   0.61509  5.5510
 6.90000    5.64     3.20   0.61430  5.5510
 6.95000    5.66     3.21   0.61373  5.5515
 7.00000    5.68     3.20   0.61366  5.5515
