 Field[T] Tsmpl[K] Tcntr[K] Signal   Mirror[MM]
 7.00000    5.74     3.20   0.43863  5.7809
 6.95000    5.74     3.22   0.45410  5.7718
 6.90000    5.73     3.20   0.46057  5.7664
 6.85000    5.72     3.20   0.46331  5.7627
 6.80000    5.71     3.20   0.46142  5.7607
 6.75000    5.71     3.21   0.45727  5.7590
 6.70000    5.71     3.19   0.45227  5.7580
 6.65000    5.70     3.20   0.44715  5.7570
 6.60000    5.69     3.20   0.44178  5.7570
 6.55000    5.68     3.21   0.43730  5.7565
 6.50000    5.67     3.19   0.43322  5.7561
 6.45000    5.66     3.19   0.42808  5.7560
 6.40000    5.65     3.19   0.42394  5.7565
 6.35000    5.65     3.20   0.41963  5.7565
 6.30000    5.65     3.20   0.41616  5.7570
 6.25000    5.64     3.19   0.41234  5.7575
 6.20000    5.64     3.20   0.40920  5.7579
 6.15000    5.64     3.22   0.40709  5.7580
 6.10000    5.64     3.19   0.40473  5.7587
 6.05000    5.64     3.19   0.40257  5.7590
 6.00000    5.64     3.20   0.40038  5.7595
 5.95000    5.64     3.20   0.39928  5.7595
 5.90000    5.64     3.19   0.39791  5.7600
 5.85000    5.64     3.19   0.39513  5.7600
 5.80000    5.64     3.21   0.39368  5.7600
 5.75000    5.64     3.21   0.39324  5.7600
 5.70000    5.64     3.21   0.39183  5.7600
 5.65000    5.64     3.21   0.39030  5.7610
 5.60000    5.65     3.21   0.38882  5.7610
 5.55000    5.65     3.20   0.38775  5.7610
 5.50000    5.65     3.20   0.38631  5.7615
 5.45000    5.66     3.20   0.38488  5.7620
 5.40000    5.66     3.21   0.38473  5.7620
 5.35000    5.67     3.20   0.38422  5.7620
 5.30000    5.67     3.21   0.38380  5.7620
 5.25000    5.67     3.20   0.38271  5.7620
 5.20000    5.67     3.22   0.38172  5.7625
 5.15000    5.68     3.20   0.38086  5.7625
 5.10000    5.68     3.20   0.37981  5.7630
 5.05000    5.68     3.19   0.37998  5.7625
 5.00000    5.68     3.19   0.38003  5.7625
 4.95000    5.69     3.20   0.37906  5.7625
 4.90000    5.69     3.19   0.37824  5.7625
 4.85000    5.69     3.20   0.37792  5.7625
 4.80000    5.69     3.20   0.37729  5.7628
 4.75000    5.70     3.20   0.37737  5.7630
 4.70000    5.70     3.20   0.37699  5.7625
 4.65000    5.71     3.20   0.37662  5.7625
 4.60000    5.71     3.19   0.37584  5.7630
 4.55000    5.71     3.22   0.37606  5.7625
 4.50000    5.72     3.19   0.37526  5.7630
 4.45000    5.72     3.20   0.37496  5.7630
 4.40000    5.72     3.21   0.37408  5.7630
 4.35000    5.73     3.21   0.37436  5.7630
 4.30000    5.73     3.20   0.37423  5.7630
 4.25000    5.74     3.20   0.37327  5.7630
 4.20000    5.74     3.20   0.37317  5.7633
 4.15000    5.74     3.21   0.37375  5.7635
 4.10000    5.75     3.20   0.37375  5.7635
 4.05000    5.75     3.20   0.37353  5.7635
 4.00000    5.75     3.22   0.37404  5.7639
 3.95000    5.76     3.20   0.37488  5.7635
 3.90000    5.76     3.20   0.37510  5.7635
 3.85000    5.76     3.20   0.37527  5.7639
 3.80000    5.77     3.21   0.37530  5.7645
 3.75000    5.78     3.20   0.37518  5.7645
 3.70000    5.78     3.20   0.37481  5.7645
 3.65000    5.78     3.20   0.37507  5.7645
 3.60000    5.78     3.20   0.37618  5.7643
 3.55000    5.79     3.21   0.37604  5.7640
 3.50000    5.80     3.20   0.37681  5.7645
 3.45000    5.80     3.20   0.37703  5.7645
 3.40000    5.80     3.20   0.37699  5.7645
 3.35000    5.81     3.22   0.37720  5.7640
 3.30000    5.82     3.20   0.37684  5.7635
 3.25000    5.82     3.20   0.37650  5.7635
 3.20000    5.82     3.21   0.37628  5.7635
 3.15000    5.83     3.20   0.37703  5.7640
 3.10000    5.83     3.20   0.37770  5.7640
 3.05000    5.84     3.20   0.37695  5.7640
 3.00000    5.84     3.20   0.37699  5.7640
 2.95000    5.84     3.20   0.37777  5.7640
 2.90000    5.84     3.20   0.37841  5.7635
 2.85000    5.85     3.20   0.37940  5.7635
 2.80000    5.84     3.21   0.37865  5.7631
 2.75000    5.85     3.20   0.37934  5.7630
 2.70000    5.85     3.20   0.38023  5.7627
 2.65000    5.85     3.20   0.38033  5.7625
 2.60000    5.85     3.20   0.38032  5.7625
 2.55000    5.85     3.20   0.37925  5.7625
 2.50000    5.85     3.20   0.37952  5.7620
 2.45000    5.85     3.20   0.38062  5.7620
 2.40000    5.85     3.20   0.38056  5.7615
 2.35000    5.85     3.21   0.38004  5.7615
 2.30000    5.85     3.19   0.38063  5.7610
 2.25000    5.84     3.20   0.38103  5.7605
 2.20000    5.84     3.20   0.38080  5.7605
 2.15000    5.84     3.21   0.37997  5.7605
 2.10000    5.84     3.19   0.38005  5.7605
 2.05000    5.84     3.20   0.37999  5.7603
 2.00000    5.84     3.20   0.37939  5.7600
 1.95000    5.84     3.21   0.37932  5.7600
 1.90000    5.84     3.20   0.37987  5.7600
 1.85000    5.84     3.19   0.37996  5.7600
 1.80000    5.83     3.19   0.37900  5.7593
 1.75000    5.82     3.20   0.37833  5.7600
 1.70000    5.82     3.19   0.37856  5.7600
 1.65000    5.82     3.20   0.37912  5.7600
 1.60000    5.81     3.19   0.37909  5.7595
 1.55000    5.81     3.21   0.37803  5.7617
 1.50000    5.81     3.20   0.37921  5.7605
 1.45000    5.81     3.19   0.37927  5.7600
 1.40000    5.81     3.20   0.37954  5.7600
 1.35000    5.81     3.20   0.37956  5.7595
 1.30000    5.80     3.19   0.37904  5.7599
 1.25000    5.80     3.20   0.37840  5.7600
 1.20000    5.79     3.19   0.37841  5.7602
 1.15000    5.78     3.20   0.37808  5.7600
 1.10000    5.77     3.20   0.37836  5.7595
 1.05000    5.76     3.20   0.37888  5.7595
 1.00000    5.76     3.19   0.37852  5.7595
 0.95000    5.75     3.20   0.37783  5.7596
 0.90000    5.74     3.19   0.37829  5.7600
 0.85000    5.72     3.19   0.37819  5.7600
 0.80000    5.70     3.18   0.37840  5.7600
 0.75000    5.67     3.19   0.37855  5.7600
 0.70000    5.65     3.19   0.37887  5.7600
 0.65000    5.62     3.19   0.37832  5.7605
 0.60000    5.60     3.19   0.37786  5.7605
 0.55000    5.58     3.19   0.37837  5.7605
 0.50000    5.56     3.18   0.37821  5.7605
 0.45000    5.54     3.18   0.37750  5.7610
 0.40000    5.52     3.19   0.37740  5.7610
 0.35000    5.51     3.19   0.37688  5.7610
 0.30000    5.50     3.18   0.37724  5.7610
 0.25000    5.49     3.18   0.37788  5.7605
 0.20000    5.47     3.19   0.37779  5.7606
 0.15000    5.47     3.19   0.37714  5.7605
 0.10000    5.46     3.19   0.37724  5.7610
 0.05000    5.46     3.19   0.37708  5.7610
-0.00000    5.45     3.19   0.37728  5.7610
