 Field[T] Tsmpl[K] Tcntr[K] SignalIntensity   Mirror[MM]
 0.00000    1.82     1.82   0.45193  6.5510
 0.05000    1.82     1.82   0.45189  6.5510
 0.10000    1.82     1.82   0.45123  6.5511
 0.15000    1.82     1.82   0.45121  6.5508
 0.20000    1.82     1.82   0.45027  6.5509
 0.25000    1.82     1.82   0.45164  6.5508
 0.30000    1.82     1.82   0.45330  6.5508
 0.35000    1.82     1.82   0.45387  6.5510
 0.40000    1.82     1.82   0.45571  6.5512
 0.45000    1.82     1.82   0.45409  6.5507
 0.50000    1.82     1.82   0.45240  6.5507
 0.55000    1.82     1.82   0.45102  6.5506
 0.60000    1.82     1.82   0.45018  6.5505
 0.65000    1.82     1.82   0.44976  6.5506
 0.70000    1.82     1.82   0.44944  6.5508
 0.75000    1.82     1.82   0.44939  6.5508
 0.80000    1.82     1.82   0.44994  6.5507
 0.85000    1.82     1.82   0.45100  6.5507
 0.90000    1.82     1.82   0.45154  6.5508
 0.95000    1.82     1.82   0.45022  6.5508
 1.00000    1.82     1.82   0.44794  6.5507
 1.05000    1.82     1.82   0.44621  6.5509
 1.10000    1.82     1.82   0.44510  6.5507
 1.15000    1.82     1.82   0.44425  6.5504
 1.20000    1.82     1.82   0.44334  6.5505
 1.25000    1.82     1.82   0.44321  6.5508
 1.30000    1.82     1.82   0.44257  6.5507
 1.35000    1.82     1.82   0.44204  6.5509
 1.40000    1.82     1.82   0.44111  6.5510
 1.45000    1.82     1.82   0.44118  6.5509
 1.50000    1.82     1.82   0.44072  6.5509
 1.55000    1.82     1.82   0.44023  6.5509
 1.60000    1.82     1.82   0.43967  6.5507
 1.65000    1.82     1.82   0.43971  6.5504
 1.70000    1.82     1.82   0.44078  6.5502
 1.75000    1.82     1.82   0.44171  6.5505
 1.80000    1.82     1.82   0.44176  6.5509
 1.85000    1.82     1.82   0.44138  6.5513
 1.90000    1.82     1.82   0.44099  6.5516
 1.95000    1.82     1.82   0.44095  6.5515
 2.00000    1.82     1.82   0.44129  6.5518
 2.05000    1.82     1.82   0.44184  6.5518
 2.10000    1.82     1.82   0.44153  6.5524
 2.15000    1.82     1.82   0.44083  6.5526
 2.20000    1.82     1.82   0.44022  6.5527
 2.25000    1.82     1.82   0.44010  6.5528
 2.30000    1.82     1.82   0.44040  6.5529
 2.35000    1.82     1.82   0.44002  6.5535
 2.40000    1.82     1.82   0.43981  6.5535
 2.45000    1.82     1.82   0.43893  6.5538
 2.50000    1.82     1.82   0.43775  6.5539
 2.55000    1.82     1.82   0.43656  6.5541
 2.60000    1.82     1.82   0.43546  6.5541
 2.65000    1.82     1.82   0.43517  6.5543
 2.70000    1.82     1.82   0.43564  6.5540
 2.75000    1.82     1.82   0.43572  6.5540
 2.80000    1.82     1.82   0.43523  6.5544
 2.85000    1.82     1.82   0.43469  6.5542
 2.90000    1.82     1.82   0.43421  6.5542
 2.95000    1.82     1.82   0.43383  6.5545
 3.00000    1.82     1.82   0.43373  6.5542
 3.05000    1.82     1.82   0.43366  6.5542
 3.10000    1.82     1.82   0.43324  6.5540
 3.15000    1.82     1.82   0.43298  6.5542
 3.20000    1.82     1.82   0.43307  6.5539
 3.25000    1.82     1.82   0.43327  6.5542
 3.30000    1.82     1.82   0.43289  6.5544
 3.35000    1.82     1.82   0.43267  6.5543
 3.40000    1.82     1.82   0.43286  6.5546
 3.45000    1.82     1.82   0.43201  6.5546
 3.50000    1.82     1.82   0.43217  6.5547
 3.55000    1.82     1.82   0.43154  6.5547
 3.60000    1.82     1.82   0.43106  6.5545
 3.65000    1.82     1.82   0.43106  6.5547
 3.70000    1.82     1.82   0.43088  6.5546
 3.75000    1.82     1.82   0.43071  6.5547
 3.80000    1.82     1.82   0.43041  6.5548
 3.85000    1.82     1.82   0.43006  6.5551
 3.90000    1.82     1.82   0.42969  6.5549
 3.95000    1.82     1.82   0.42945  6.5549
 4.00000    1.82     1.82   0.42945  6.5550
 4.05000    1.82     1.82   0.42916  6.5549
 4.10000    1.82     1.82   0.42909  6.5549
 4.15000    1.82     1.82   0.42891  6.5548
 4.20000    1.82     1.82   0.42896  6.5548
 4.25000    1.82     1.82   0.42832  6.5550
 4.30000    1.82     1.82   0.42814  6.5547
 4.35000    1.82     1.82   0.42808  6.5547
 4.40000    1.82     1.82   0.42734  6.5549
 4.45000    1.82     1.82   0.42771  6.5551
 4.50000    1.82     1.82   0.42734  6.5547
 4.55000    1.82     1.82   0.42714  6.5548
 4.60000    1.82     1.82   0.42713  6.5547
 4.65000    1.82     1.82   0.42661  6.5550
 4.70000    1.82     1.82   0.42650  6.5548
 4.75000    1.82     1.82   0.42636  6.5549
 4.80000    1.82     1.82   0.42659  6.5549
 4.85000    1.82     1.82   0.42611  6.5548
 4.90000    1.82     1.82   0.42636  6.5547
 4.95000    1.82     1.82   0.42592  6.5550
 5.00000    1.82     1.82   0.42579  6.5546
 5.05000    1.82     1.82   0.42558  6.5548
 5.10000    1.82     1.82   0.42538  6.5550
 5.15000    1.82     1.82   0.42523  6.5548
 5.20000    1.82     1.82   0.42488  6.5547
 5.25000    1.82     1.82   0.42497  6.5548
 5.30000    1.82     1.82   0.42451  6.5547
 5.35000    1.82     1.82   0.42477  6.5546
 5.40000    1.82     1.82   0.42447  6.5549
 5.45000    1.82     1.82   0.42424  6.5548
 5.50000    1.82     1.82   0.42414  6.5548
 5.55000    1.82     1.82   0.42410  6.5548
 5.60000    1.82     1.82   0.42381  6.5547
 5.65000    1.82     1.82   0.42374  6.5547
 5.70000    1.82     1.82   0.42378  6.5549
 5.75000    1.82     1.82   0.42342  6.5548
 5.80000    1.82     1.82   0.42331  6.5547
 5.85000    1.82     1.82   0.42339  6.5549
 5.90000    1.82     1.82   0.42264  6.5550
 5.95000    1.82     1.82   0.42298  6.5549
 6.00000    1.82     1.82   0.42285  6.5552
 6.05000    1.82     1.82   0.42281  6.5550
 6.10000    1.82     1.82   0.42267  6.5548
 6.15000    1.82     1.82   0.42276  6.5549
 6.20000    1.82     1.82   0.42248  6.5550
 6.25000    1.82     1.82   0.42225  6.5548
 6.30000    1.82     1.82   0.42169  6.5549
 6.35000    1.82     1.82   0.42187  6.5550
 6.40000    1.82     1.82   0.42174  6.5549
 6.45000    1.82     1.82   0.42190  6.5550
 6.50000    1.82     1.82   0.42189  6.5548
 6.55000    1.82     1.82   0.42179  6.5550
 6.60000    1.82     1.82   0.42143  6.5550
 6.65000    1.82     1.82   0.42139  6.5549
 6.70000    1.82     1.82   0.42091  6.5551
 6.75000    1.82     1.82   0.42114  6.5549
 6.80000    1.82     1.82   0.42090  6.5549
 6.85000    1.82     1.82   0.42075  6.5550
 6.90000    1.82     1.82   0.42084  6.5551
 6.95000    1.82     1.82   0.42062  6.5550
 7.00000    1.82     1.82   0.42041  6.5551
