 Field[T] Tsmpl[K] Tcntr[K] Signal   Mirror[MM]
 5.00000    1.81     1.85   0.43698  8.1692
 4.95000    1.81     1.85   0.43743  8.1705
 4.90000    1.81     1.85   0.43784  8.1692
 4.85000    1.81     1.85   0.43757  8.1716
 4.80000    1.81     1.85   0.43976  8.1704
 4.75000    1.81     1.85   0.44068  8.1705
 4.70000    1.81     1.85   0.44107  8.1693
 4.65000    1.81     1.85   0.44110  8.1697
 4.60000    1.81     1.85   0.44145  8.1694
 4.55000    1.81     1.85   0.44127  8.1694
 4.50000    1.81     1.85   0.44204  8.1703
 4.45000    1.81     1.85   0.44330  8.1699
 4.40000    1.81     1.84   0.44246  8.1697
 4.35000    1.81     1.84   0.44192  8.1696
 4.30000    1.81     1.84   0.44112  8.1696
 4.25000    1.81     1.84   0.44167  8.1695
 4.20000    1.81     1.84   0.44069  8.1705
 4.15000    1.81     1.84   0.44221  8.1703
 4.10000    1.81     1.84   0.44290  8.1701
 4.05000    1.81     1.84   0.44385  8.1699
 4.00000    1.81     1.84   0.44421  8.1701
 3.95000    1.81     1.84   0.44422  8.1703
 3.90000    1.81     1.84   0.44448  8.1703
 3.85000    1.81     1.84   0.44477  8.1702
 3.80000    1.81     1.84   0.44591  8.1703
 3.75000    1.81     1.84   0.44578  8.1705
 3.70000    1.81     1.84   0.44637  8.1704
 3.65000    1.81     1.84   0.44540  8.1708
 3.60000    1.81     1.84   0.44626  8.1706
 3.55000    1.81     1.84   0.44635  8.1707
 3.50000    1.80     1.84   0.44755  8.1712
 3.45000    1.80     1.84   0.44802  8.1708
 3.40000    1.80     1.84   0.44726  8.1707
 3.35000    1.80     1.84   0.44708  8.1712
 3.30000    1.80     1.84   0.44710  8.1718
 3.25000    1.80     1.83   0.44916  8.1716
 3.20000    1.80     1.83   0.44940  8.1715
 3.15000    1.80     1.83   0.45022  8.1714
 3.10000    1.80     1.83   0.44946  8.1711
 3.05000    1.80     1.83   0.44942  8.1709
 3.00000    1.80     1.83   0.44883  8.1718
 2.95000    1.80     1.83   0.44829  8.1741
 2.90000    1.80     1.83   0.44952  8.1721
 2.85000    1.80     1.83   0.45017  8.1723
 2.80000    1.80     1.83   0.45042  8.1719
 2.75000    1.80     1.83   0.45046  8.1713
 2.70000    1.80     1.83   0.45057  8.1718
 2.65000    1.80     1.83   0.45084  8.1720
 2.60000    1.80     1.83   0.45060  8.1721
 2.55000    1.80     1.83   0.45026  8.1720
 2.50000    1.80     1.83   0.44947  8.1722
 2.45000    1.80     1.82   0.45005  8.1718
 2.40000    1.80     1.82   0.44957  8.1724
 2.35000    1.80     1.82   0.45105  8.1724
 2.30000    1.80     1.82   0.45092  8.1728
 2.25000    1.80     1.82   0.45064  8.1733
 2.20000    1.80     1.82   0.45087  8.1735
 2.15000    1.80     1.82   0.45032  8.1739
 2.10000    1.80     1.82   0.45118  8.1741
 2.05000    1.80     1.82   0.45083  8.1743
 2.00000    1.80     1.82   0.45122  8.1752
 1.95000    1.80     1.82   0.45067  8.1757
 1.90000    1.80     1.82   0.45066  8.1761
 1.85000    1.80     1.82   0.45098  8.1762
 1.80000    1.80     1.82   0.45131  8.1770
 1.75000    1.80     1.82   0.45180  8.1772
 1.70000    1.80     1.82   0.45322  8.1777
 1.65000    1.80     1.82   0.45371  8.1780
 1.60000    1.80     1.82   0.45383  8.1790
 1.55000    1.80     1.82   0.45378  8.1787
 1.50000    1.80     1.82   0.45389  8.1790
 1.45000    1.80     1.82   0.45423  8.1794
 1.40000    1.80     1.82   0.45424  8.1792
 1.35000    1.80     1.82   0.45498  8.1789
 1.30000    1.80     1.82   0.45544  8.1795
 1.25000    1.80     1.82   0.45562  8.1801
 1.20000    1.80     1.82   0.45377  8.1824
 1.15000    1.80     1.82   0.45519  8.1810
 1.10000    1.80     1.82   0.45624  8.1796
 1.05000    1.80     1.81   0.45663  8.1794
 1.00000    1.80     1.81   0.45700  8.1796
 0.95000    1.80     1.81   0.45650  8.1795
 0.90000    1.80     1.81   0.45693  8.1797
 0.85000    1.80     1.81   0.45650  8.1792
 0.80000    1.79     1.81   0.45755  8.1795
 0.75000    1.79     1.81   0.45809  8.1790
 0.70000    1.79     1.81   0.45852  8.1797
 0.65000    1.79     1.81   0.45824  8.1794
 0.60000    1.79     1.81   0.45703  8.1797
 0.55000    1.79     1.81   0.45764  8.1801
 0.50000    1.79     1.81   0.45741  8.1797
 0.45000    1.79     1.81   0.45751  8.1802
 0.40000    1.79     1.81   0.45714  8.1802
 0.35000    1.79     1.81   0.45695  8.1802
 0.30000    1.79     1.81   0.45720  8.1804
 0.25000    1.79     1.81   0.45668  8.1807
 0.20000    1.79     1.81   0.45710  8.1808
 0.15000    1.79     1.81   0.45678  8.1806
 0.10000    1.79     1.81   0.45701  8.1808
 0.05000    1.79     1.81   0.45698  8.1810
-0.00000    1.79     1.81   0.45720  8.1815
