 Field[T] Tsmpl[K] Tcntr[K] Signal   Mirror[MM]
 0.00000    1.84     1.86   0.49966  8.0396
 0.05000    1.84     1.86   0.50035  8.0389
 0.10000    1.84     1.86   0.49930  8.0406
 0.15000    1.84     1.86   0.50036  8.0402
 0.20000    1.84     1.86   0.49940  8.0410
 0.25000    1.84     1.86   0.49929  8.0402
 0.30000    1.84     1.86   0.49931  8.0400
 0.35000    1.84     1.86   0.49991  8.0396
 0.40000    1.84     1.86   0.50002  8.0390
 0.45000    1.84     1.86   0.49946  8.0389
 0.50000    1.84     1.86   0.50003  8.0386
 0.55000    1.84     1.86   0.49933  8.0386
 0.60000    1.84     1.86   0.49942  8.0379
 0.65000    1.84     1.86   0.49911  8.0378
 0.70000    1.84     1.86   0.49999  8.0378
 0.75000    1.84     1.86   0.50000  8.0370
 0.80000    1.84     1.86   0.49997  8.0368
 0.85000    1.84     1.86   0.49962  8.0372
 0.90000    1.84     1.86   0.49995  8.0365
 0.95000    1.84     1.86   0.50039  8.0364
 1.00000    1.84     1.86   0.50052  8.0359
 1.05000    1.84     1.86   0.50219  8.0352
 1.10000    1.84     1.86   0.50285  8.0352
 1.15000    1.84     1.86   0.50311  8.0359
 1.20000    1.84     1.86   0.50383  8.0363
 1.25000    1.84     1.86   0.50458  8.0358
 1.30000    1.84     1.86   0.50517  8.0357
 1.35000    1.84     1.86   0.50569  8.0363
 1.40000    1.84     1.86   0.50558  8.0369
 1.45000    1.84     1.86   0.50590  8.0370
 1.50000    1.84     1.86   0.50605  8.0374
 1.55000    1.84     1.86   0.50530  8.0396
 1.60000    1.84     1.87   0.50560  8.0391
 1.65000    1.84     1.87   0.50537  8.0394
 1.70000    1.84     1.87   0.50595  8.0401
 1.75000    1.84     1.87   0.50597  8.0410
 1.80000    1.84     1.87   0.50487  8.0421
 1.85000    1.84     1.87   0.50356  8.0429
 1.90000    1.84     1.87   0.50353  8.0421
 1.95000    1.84     1.87   0.50200  8.0431
 2.00000    1.84     1.87   0.50169  8.0431
 2.05000    1.84     1.87   0.50017  8.0431
 2.10000    1.84     1.87   0.49740  8.0437
 2.15000    1.84     1.87   0.49641  8.0433
 2.20000    1.84     1.87   0.49506  8.0421
 2.25000    1.84     1.87   0.49429  8.0408
 2.30000    1.84     1.87   0.49370  8.0390
 2.35000    1.85     1.87   0.49291  8.0381
 2.40000    1.85     1.87   0.49381  8.0362
 2.45000    1.85     1.87   0.49413  8.0345
 2.50000    1.85     1.87   0.49473  8.0347
 2.55000    1.85     1.87   0.49508  8.0340
 2.60000    1.85     1.87   0.49587  8.0339
 2.65000    1.85     1.87   0.49673  8.0326
 2.70000    1.85     1.87   0.49707  8.0324
 2.75000    1.85     1.88   0.49784  8.0327
 2.80000    1.85     1.88   0.49852  8.0325
 2.85000    1.85     1.88   0.49859  8.0327
 2.90000    1.85     1.88   0.50015  8.0319
 2.95000    1.85     1.88   0.49989  8.0318
 3.00000    1.85     1.88   0.50019  8.0326
 3.05000    1.85     1.88   0.50139  8.0319
 3.10000    1.85     1.88   0.50170  8.0319
 3.15000    1.85     1.88   0.50166  8.0328
 3.20000    1.85     1.88   0.50238  8.0319
 3.25000    1.85     1.88   0.50217  8.0322
 3.30000    1.85     1.88   0.50242  8.0324
 3.35000    1.85     1.88   0.50259  8.0326
 3.40000    1.85     1.88   0.50214  8.0329
 3.45000    1.85     1.88   0.50198  8.0327
 3.50000    1.85     1.88   0.50222  8.0341
 3.55000    1.85     1.88   0.50227  8.0337
 3.60000    1.85     1.88   0.50215  8.0332
 3.65000    1.85     1.88   0.50255  8.0330
 3.70000    1.85     1.88   0.50233  8.0322
 3.75000    1.85     1.88   0.50205  8.0336
 3.80000    1.85     1.88   0.50261  8.0330
 3.85000    1.85     1.88   0.50311  8.0324
 3.90000    1.85     1.89   0.50263  8.0329
 3.95000    1.85     1.89   0.50267  8.0327
 4.00000    1.85     1.89   0.50264  8.0331
 4.05000    1.85     1.89   0.50285  8.0331
 4.10000    1.85     1.89   0.50201  8.0335
 4.15000    1.85     1.89   0.50231  8.0336
 4.20000    1.85     1.89   0.50265  8.0334
 4.25000    1.86     1.89   0.50231  8.0328
 4.30000    1.86     1.89   0.50254  8.0330
 4.35000    1.86     1.89   0.50125  8.0344
 4.40000    1.86     1.89   0.50252  8.0323
 4.45000    1.86     1.89   0.50197  8.0328
 4.50000    1.86     1.89   0.50220  8.0324
 4.55000    1.86     1.89   0.50255  8.0323
 4.60000    1.86     1.89   0.50226  8.0325
 4.65000    1.86     1.89   0.50306  8.0325
 4.70000    1.86     1.89   0.50223  8.0330
 4.75000    1.86     1.89   0.50303  8.0321
 4.80000    1.86     1.90   0.50233  8.0331
 4.85000    1.86     1.90   0.50230  8.0332
 4.90000    1.86     1.90   0.50225  8.0334
 4.95000    1.86     1.90   0.50297  8.0317
 5.00000    1.86     1.90   0.50166  8.0324
 5.05000    1.86     1.90   0.50232  8.0316
 5.10000    1.86     1.90   0.50202  8.0321
 5.15000    1.86     1.90   0.50185  8.0326
 5.20000    1.86     1.90   0.50190  8.0324
 5.25000    1.86     1.90   0.50252  8.0328
 5.30000    1.86     1.90   0.50207  8.0322
 5.35000    1.86     1.90   0.50174  8.0331
 5.40000    1.87     1.90   0.50238  8.0324
 5.45000    1.87     1.90   0.50248  8.0318
 5.50000    1.87     1.90   0.50230  8.0321
 5.55000    1.87     1.90   0.50216  8.0330
 5.60000    1.87     1.90   0.50205  8.0324
 5.65000    1.87     1.90   0.50175  8.0328
 5.70000    1.87     1.90   0.50256  8.0326
 5.75000    1.87     1.91   0.50210  8.0323
 5.80000    1.87     1.91   0.50205  8.0333
 5.85000    1.87     1.91   0.50204  8.0327
 5.90000    1.87     1.91   0.50232  8.0331
 5.95000    1.87     1.91   0.50253  8.0335
 6.00000    1.87     1.91   0.50243  8.0330
 6.05000    1.87     1.91   0.50229  8.0334
 6.10000    1.87     1.91   0.50249  8.0330
 6.15000    1.87     1.91   0.50245  8.0335
 6.20000    1.87     1.91   0.50245  8.0331
 6.25000    1.87     1.91   0.50166  8.0332
 6.30000    1.87     1.91   0.50212  8.0339
 6.35000    1.87     1.91   0.50205  8.0334
 6.40000    1.87     1.91   0.50177  8.0339
 6.45000    1.87     1.91   0.50198  8.0342
 6.50000    1.87     1.91   0.50196  8.0329
 6.55000    1.87     1.91   0.50134  8.0343
 6.60000    1.87     1.91   0.50179  8.0336
 6.65000    1.87     1.91   0.50166  8.0328
 6.70000    1.87     1.91   0.50150  8.0339
 6.75000    1.87     1.91   0.50209  8.0328
 6.80000    1.87     1.91   0.50110  8.0340
 6.85000    1.87     1.91   0.50092  8.0339
 6.90000    1.88     1.92   0.50085  8.0350
 6.95000    1.88     1.92   0.50157  8.0331
 7.00000    1.88     1.92   0.50107  8.0343
