 Field[T] Tsmpl[K] Tcntr[K] Signal   Mirror[MM]
 3.00000    1.86     1.89   0.44991  7.7172
 2.98000    1.86     1.89   0.44949  7.7176
 2.96000    1.86     1.89   0.44965  7.7167
 2.94000    1.86     1.89   0.44977  7.7166
 2.92000    1.86     1.89   0.44988  7.7166
 2.90000    1.86     1.89   0.44933  7.7166
 2.88000    1.86     1.89   0.44938  7.7168
 2.86000    1.86     1.89   0.44986  7.7163
 2.84000    1.86     1.89   0.45003  7.7168
 2.82000    1.86     1.89   0.44944  7.7165
 2.80000    1.86     1.89   0.45001  7.7160
 2.78000    1.86     1.89   0.44988  7.7164
 2.76000    1.86     1.89   0.45000  7.7160
 2.74000    1.86     1.89   0.44969  7.7156
 2.72000    1.86     1.89   0.45008  7.7158
 2.70000    1.86     1.89   0.45007  7.7154
 2.68000    1.86     1.89   0.45016  7.7148
 2.66000    1.86     1.89   0.45029  7.7152
 2.64000    1.86     1.89   0.44972  7.7155
 2.62000    1.86     1.89   0.45020  7.7157
 2.60000    1.86     1.89   0.45036  7.7160
 2.58000    1.86     1.89   0.45015  7.7158
 2.56000    1.86     1.89   0.44999  7.7161
 2.54000    1.86     1.89   0.45004  7.7157
 2.52000    1.86     1.89   0.44944  7.7168
 2.50000    1.86     1.89   0.44872  7.7179
 2.48000    1.86     1.89   0.44977  7.7163
 2.46000    1.86     1.89   0.45033  7.7155
 2.44000    1.86     1.89   0.45014  7.7155
 2.42000    1.86     1.89   0.45022  7.7157
 2.40000    1.86     1.89   0.45034  7.7161
 2.38000    1.86     1.89   0.45047  7.7154
 2.36000    1.86     1.89   0.45079  7.7159
 2.34000    1.86     1.89   0.45020  7.7158
 2.32000    1.86     1.89   0.44998  7.7153
 2.30000    1.86     1.89   0.44967  7.7159
 2.28000    1.86     1.89   0.44928  7.7152
 2.26000    1.86     1.89   0.44910  7.7158
 2.24000    1.86     1.89   0.45003  7.7154
 2.22000    1.86     1.89   0.45038  7.7156
 2.20000    1.86     1.89   0.45027  7.7153
 2.18000    1.86     1.89   0.45017  7.7155
 2.16000    1.86     1.89   0.44969  7.7159
 2.14000    1.86     1.89   0.44988  7.7160
 2.12000    1.86     1.89   0.44982  7.7158
 2.10000    1.86     1.89   0.44988  7.7158
 2.08000    1.86     1.89   0.44982  7.7157
 2.06000    1.86     1.89   0.44953  7.7158
 2.04000    1.86     1.89   0.44989  7.7158
 2.02000    1.86     1.88   0.44920  7.7167
 2.00000    1.86     1.88   0.44956  7.7161
 1.98000    1.86     1.88   0.44915  7.7164
 1.96000    1.86     1.88   0.44920  7.7162
 1.94000    1.86     1.88   0.44926  7.7158
 1.92000    1.86     1.88   0.44988  7.7160
 1.90000    0.00     1.88   0.45019  7.7151
 1.88000    1.86     1.88   0.44899  7.7160
 1.86000    1.86     1.88   0.44940  7.7157
 1.84000    1.86     1.88   0.44914  7.7158
 1.82000    1.86     1.88   0.44931  7.7161
 1.80000    1.86     1.88   0.44922  7.7164
 1.78000    1.86     1.88   0.44959  7.7168
 1.76000    1.86     1.88   0.44902  7.7166
 1.74000    1.86     1.88   0.44998  7.7163
 1.72000    1.86     1.88   0.44948  7.7179
 1.70000    1.86     1.88   0.44927  7.7174
 1.68000    1.86     1.88   0.44992  7.7175
 1.66000    1.86     1.88   0.45003  7.7168
 1.64000    1.86     1.88   0.44987  7.7175
 1.62000    1.86     1.88   0.44977  7.7184
 1.60000    1.86     1.88   0.44918  7.7185
 1.58000    1.86     1.88   0.44923  7.7190
 1.56000    1.86     1.88   0.45009  7.7182
 1.54000    1.86     1.88   0.45018  7.7183
 1.52000    1.86     1.88   0.45034  7.7187
 1.50000    1.86     1.88   0.45016  7.7190
 1.48000    1.86     1.88   0.45118  7.7182
 1.46000    1.86     1.88   0.45062  7.7185
 1.44000    1.86     1.88   0.45059  7.7179
 1.42000    1.86     1.88   0.45108  7.7176
 1.40000    1.86     1.88   0.45099  7.7178
 1.38000    1.86     1.88   0.45116  7.7180
 1.36000    1.86     1.88   0.45103  7.7179
 1.34000    1.86     1.88   0.45111  7.7177
 1.32000    1.86     1.88   0.45166  7.7183
 1.30000    1.86     1.88   0.45180  7.7182
 1.28000    1.86     1.88   0.45216  7.7174
 1.26000    1.86     1.88   0.45144  7.7173
 1.24000    1.86     1.88   0.45196  7.7175
 1.22000    1.86     1.88   0.45239  7.7175
 1.20000    1.86     1.88   0.45229  7.7171
 1.18000    1.86     1.88   0.45180  7.7177
 1.16000    1.86     1.88   0.45191  7.7175
 1.14000    1.86     1.88   0.45197  7.7177
 1.12000    1.86     1.88   0.45139  7.7178
 1.10000    1.86     1.88   0.45170  7.7175
 1.08000    1.86     1.88   0.45164  7.7181
 1.06000    1.86     1.88   0.45232  7.7178
 1.04000    1.86     1.88   0.45181  7.7170
 1.02000    1.86     1.88   0.45235  7.7163
 1.00000    1.86     1.88   0.45272  7.7165
 0.98000    1.86     1.88   0.45257  7.7163
 0.96000    1.86     1.88   0.45247  7.7160
 0.94000    1.86     1.88   0.45226  7.7164
 0.92000    1.86     1.88   0.45262  7.7162
 0.90000    1.86     1.88   0.45217  7.7168
 0.88000    1.86     1.88   0.45080  7.7185
 0.86000    1.86     1.88   0.45175  7.7172
 0.84000    1.86     1.88   0.45196  7.7159
 0.82000    1.86     1.88   0.45248  7.7157
 0.80000    1.86     1.88   0.45225  7.7156
 0.78000    1.86     1.88   0.45189  7.7159
 0.76000    1.86     1.88   0.45194  7.7153
 0.74000    1.86     1.88   0.45199  7.7160
 0.72000    1.86     1.88   0.45221  7.7148
 0.70000    1.86     1.88   0.45190  7.7157
 0.68000    1.86     1.88   0.45190  7.7153
 0.66000    1.86     1.88   0.45225  7.7149
 0.64000    1.86     1.88   0.45138  7.7161
 0.62000    1.86     1.88   0.45112  7.7159
 0.60000    1.86     1.88   0.45108  7.7158
 0.58000    1.86     1.88   0.45140  7.7156
 0.56000    1.86     1.88   0.45132  7.7151
 0.54000    1.86     1.88   0.45150  7.7157
 0.52000    1.86     1.88   0.45195  7.7147
 0.50000    1.86     1.88   0.45159  7.7154
 0.48000    1.86     1.88   0.45160  7.7155
 0.46000    1.86     1.88   0.45066  7.7158
 0.44000    1.86     1.88   0.45162  7.7150
 0.42000    1.86     1.88   0.45119  7.7158
 0.40000    1.86     1.88   0.45167  7.7153
 0.38000    1.86     1.88   0.45133  7.7152
 0.36000    1.86     1.88   0.45132  7.7163
 0.34000    1.86     1.88   0.45123  7.7151
 0.32000    1.86     1.88   0.45167  7.7151
 0.30000    1.86     1.88   0.45087  7.7156
 0.28000    1.86     1.88   0.45120  7.7153
 0.26000    1.86     1.88   0.45127  7.7151
 0.24000    1.86     1.88   0.45074  7.7154
 0.22000    1.86     1.88   0.45107  7.7148
 0.20000    1.86     1.88   0.45128  7.7150
 0.18000    1.86     1.88   0.45213  7.7144
 0.16000    1.86     1.88   0.45193  7.7141
 0.14000    1.86     1.88   0.45215  7.7143
 0.12000    1.86     1.88   0.45214  7.7142
 0.10000    1.86     1.88   0.45164  7.7148
 0.08000    1.86     1.88   0.45163  7.7142
 0.06000    1.86     1.88   0.45154  7.7140
 0.04000    1.86     1.88   0.45131  7.7148
 0.02000    1.86     1.88   0.45252  7.7138
-0.00000    1.86     1.88   0.45181  7.7146
