 Field[T] Tsmpl[K] Tcntr[K] Signal   Mirror[MM]
 7.00000    1.84     1.88   2.42509  6.2922
 6.95000    1.84     1.88   2.42221  6.2923
 6.90000    1.84     1.88   2.41795  6.2924
 6.85000    1.84     1.88   2.41548  6.2925
 6.80000    1.84     1.88   2.41226  6.2927
 6.75000    1.84     1.88   2.41153  6.2927
 6.70000    1.84     1.88   2.40907  6.2928
 6.65000    1.84     1.88   2.40704  6.2932
 6.60000    1.84     1.88   2.40430  6.2934
 6.55000    1.84     1.88   2.40268  6.2940
 6.50000    1.84     1.87   2.40122  6.2939
 6.45000    1.84     1.87   2.40091  6.2941
 6.40000    1.84     1.87   2.40006  6.2942
 6.35000    1.84     1.87   2.39897  6.2941
 6.30000    1.84     1.87   2.39780  6.2942
 6.25000    1.84     1.87   2.39667  6.2944
 6.20000    1.84     1.87   2.39660  6.2945
 6.15000    1.84     1.87   2.39478  6.2944
 6.10000    1.84     1.87   2.39522  6.2948
 6.05000    1.84     1.87   2.39447  6.2944
 6.00000    1.84     1.87   2.39424  6.2950
 5.95000    1.84     1.87   2.39230  6.2948
 5.90000    1.84     1.87   2.39244  6.2946
 5.85000    1.84     1.87   2.39150  6.2946
 5.80000    1.84     1.87   2.39202  6.2947
 5.75000    1.84     1.87   2.39121  6.2947
 5.70000    1.83     1.87   2.39082  6.2945
 5.65000    1.83     1.87   2.39022  6.2945
 5.60000    1.83     1.87   2.38992  6.2944
 5.55000    1.83     1.87   2.38850  6.2945
 5.50000    1.83     1.87   2.38916  6.2943
 5.45000    1.83     1.87   2.38795  6.2947
 5.40000    1.83     1.87   2.38702  6.2947
 5.35000    1.83     1.87   2.38706  6.2943
 5.30000    1.83     1.87   2.38723  6.2949
 5.25000    1.83     1.87   2.38706  6.2949
 5.20000    1.83     1.87   2.38775  6.2951
 5.15000    1.83     1.87   2.38659  6.2951
 5.10000    1.83     1.87   2.38595  6.2949
 5.05000    1.83     1.87   2.38569  6.2950
 5.00000    1.83     1.87   2.38612  6.2950
 4.95000    1.83     1.87   2.38519  6.2954
 4.90000    1.83     1.86   2.38509  6.2951
 4.85000    1.83     1.86   2.38588  6.2950
 4.80000    1.83     1.86   2.38609  6.2953
 4.75000    1.83     1.86   2.38459  6.2954
 4.70000    1.83     1.86   2.38520  6.2954
 4.65000    1.83     1.86   2.38554  6.2951
 4.60000    1.83     1.86   2.38548  6.2950
 4.55000    1.83     1.86   2.38606  6.2950
 4.50000    1.83     1.86   2.38628  6.2951
 4.45000    1.83     1.86   2.38579  6.2953
 4.40000    1.83     1.86   2.38635  6.2951
 4.35000    1.83     1.86   2.38589  6.2952
 4.30000    1.83     1.86   2.38582  6.2951
 4.25000    1.83     1.86   2.38570  6.2951
 4.20000    1.83     1.86   2.38735  6.2950
 4.15000    1.83     1.86   2.38802  6.2949
 4.10000    1.83     1.86   2.38783  6.2949
 4.05000    1.83     1.86   2.38915  6.2950
 4.00000    1.82     1.86   2.38810  6.2949
 3.95000    1.82     1.86   2.38858  6.2948
 3.90000    1.82     1.86   2.38887  6.2948
 3.85000    1.82     1.86   2.38971  6.2949
 3.80000    1.82     1.85   2.38938  6.2950
 3.75000    1.82     1.85   2.39132  6.2951
 3.70000    1.82     1.85   2.39134  6.2949
 3.65000    1.82     1.85   2.39141  6.2948
 3.60000    1.82     1.85   2.39160  6.2950
 3.55000    1.82     1.85   2.39154  6.2950
 3.50000    1.82     1.85   2.39135  6.2950
 3.45000    1.82     1.85   2.39251  6.2951
 3.40000    1.82     1.85   2.39262  6.2950
 3.35000    1.82     1.85   2.39298  6.2950
 3.30000    1.82     1.85   2.39424  6.2950
 3.25000    1.82     1.85   2.39507  6.2949
 3.20000    1.82     1.85   2.39466  6.2951
 3.15000    1.82     1.85   2.39608  6.2950
 3.10000    1.82     1.85   2.39675  6.2947
 3.05000    1.82     1.85   2.39833  6.2950
 3.00000    1.82     1.85   2.39716  6.2947
 2.95000    1.82     1.85   2.39829  6.2944
 2.90000    1.82     1.85   2.39730  6.2942
 2.85000    1.82     1.85   2.39750  6.2941
 2.80000    1.82     1.85   2.39816  6.2940
 2.75000    1.82     1.85   2.39723  6.2937
 2.70000    1.82     1.84   2.39446  6.2936
 2.65000    1.82     1.84   2.39269  6.2935
 2.60000    1.82     1.84   2.38859  6.2939
 2.55000    1.82     1.84   2.38638  6.2945
 2.50000    1.82     1.84   2.38855  6.2957
 2.45000    1.82     1.84   2.39186  6.2961
 2.40000    1.82     1.84   2.39586  6.2961
 2.35000    1.82     1.84   2.40129  6.2959
 2.30000    1.82     1.84   2.40540  6.2955
 2.25000    1.82     1.84   2.40513  6.2949
 2.20000    1.82     1.84   2.40567  6.2944
 2.15000    1.82     1.84   2.40331  6.2949
 2.10000    1.81     1.84   2.40523  6.2951
 2.05000    1.81     1.84   2.40659  6.2948
 2.00000    1.81     1.84   2.40671  6.2945
 1.95000    1.81     1.84   2.40481  6.2943
 1.90000    1.81     1.84   2.40375  6.2943
 1.85000    1.81     1.83   2.40477  6.2943
 1.80000    1.81     1.83   2.40632  6.2942
 1.75000    1.81     1.83   2.40629  6.2939
 1.70000    1.81     1.83   2.40572  6.2935
 1.65000    1.81     1.83   2.40498  6.2935
 1.60000    1.81     1.83   2.40275  6.2935
 1.55000    1.81     1.83   2.40056  6.2933
 1.50000    1.81     1.83   2.39817  6.2935
 1.45000    1.81     1.83   2.39672  6.2939
 1.40000    1.81     1.83   2.39592  6.2944
 1.35000    1.81     1.83   2.39752  6.2950
 1.30000    1.81     1.83   2.39910  6.2949
 1.25000    1.81     1.83   2.40170  6.2949
 1.20000    1.81     1.83   2.40506  6.2953
 1.15000    1.81     1.83   2.40645  6.2948
 1.10000    1.81     1.83   2.40946  6.2947
 1.05000    1.81     1.83   2.40979  6.2944
 1.00000    1.81     1.83   2.40976  6.2942
 0.95000    1.81     1.83   2.40922  6.2940
 0.90000    1.81     1.83   2.40876  6.2938
 0.85000    1.81     1.83   2.40822  6.2938
 0.80000    1.81     1.83   2.40870  6.2940
 0.75000    1.81     1.83   2.40864  6.2941
 0.70000    1.81     1.83   2.40895  6.2943
 0.65000    1.81     1.83   2.40861  6.2945
 0.60000    1.81     1.83   2.41030  6.2942
 0.55000    1.81     1.83   2.41224  6.2941
 0.50000    1.81     1.83   2.41313  6.2941
 0.45000    1.81     1.82   2.41500  6.2939
 0.40000    1.81     1.82   2.41440  6.2942
 0.35000    1.81     1.82   2.41610  6.2940
 0.30000    1.81     1.82   2.41564  6.2940
 0.25000    1.81     1.82   2.41626  6.2938
 0.20000    1.81     1.82   2.41717  6.2937
 0.15000    1.81     1.82   2.41823  6.2938
 0.10000    1.81     1.82   2.41755  6.2935
 0.05000    1.81     1.82   2.41868  6.2935
-0.00000    1.81     1.82   2.41892  6.2935
