 Field[T] Tsmpl[K] Tcntr[K] Signal   Mirror[MM]
 0.00000    1.82     1.83   0.34924  5.9210
 0.05000    1.82     1.83   0.34906  5.9203
 0.10000    1.82     1.83   0.34900  5.9212
 0.15000    1.82     1.83   0.34890  5.9215
 0.20000    1.82     1.83   0.34894  5.9216
 0.25000    1.82     1.83   0.34884  5.9210
 0.30000    1.82     1.83   0.34891  5.9211
 0.35000    1.82     1.83   0.34885  5.9209
 0.40000    1.82     1.83   0.34924  5.9208
 0.45000    1.82     1.83   0.34928  5.9207
 0.50000    1.82     1.83   0.34980  5.9209
 0.55000    1.82     1.83   0.34957  5.9208
 0.60000    1.82     1.83   0.34971  5.9211
 0.65000    1.82     1.83   0.34978  5.9212
 0.70000    1.82     1.83   0.35003  5.9217
 0.75000    1.82     1.83   0.35015  5.9215
 0.80000    1.82     1.83   0.35052  5.9218
 0.85000    1.82     1.83   0.35047  5.9222
 0.90000    1.82     1.83   0.35025  5.9223
 0.95000    1.82     1.83   0.34998  5.9224
 1.00000    1.82     1.83   0.35016  5.9228
 1.05000    1.82     1.83   0.34983  5.9232
 1.10000    1.82     1.83   0.35009  5.9234
 1.15000    1.82     1.83   0.34996  5.9236
 1.20000    1.82     1.83   0.34980  5.9239
 1.25000    1.82     1.83   0.34925  5.9239
 1.30000    1.82     1.83   0.34937  5.9238
 1.35000    1.82     1.83   0.34935  5.9236
 1.40000    1.82     1.83   0.34882  5.9235
 1.45000    1.82     1.83   0.34866  5.9234
 1.50000    1.82     1.83   0.34884  5.9238
 1.55000    1.82     1.83   0.34840  5.9240
 1.60000    1.82     1.83   0.34767  5.9238
 1.65000    1.82     1.83   0.34770  5.9233
 1.70000    1.82     1.83   0.34759  5.9230
 1.75000    1.82     1.84   0.34753  5.9228
 1.80000    1.82     1.84   0.34805  5.9223
 1.85000    1.82     1.84   0.34870  5.9221
 1.90000    1.82     1.84   0.34901  5.9224
 1.95000    1.82     1.84   0.34944  5.9231
 2.00000    1.82     1.84   0.34974  5.9239
 2.05000    1.82     1.84   0.34967  5.9238
 2.10000    1.82     1.84   0.34922  5.9245
 2.15000    1.82     1.84   0.34894  5.9250
 2.20000    1.82     1.84   0.34883  5.9250
 2.25000    1.82     1.84   0.34878  5.9250
 2.30000    1.82     1.84   0.34862  5.9249
 2.35000    1.82     1.84   0.34862  5.9252
 2.40000    1.82     1.84   0.34823  5.9256
 2.45000    1.82     1.84   0.34782  5.9260
 2.50000    1.82     1.84   0.34760  5.9262
 2.55000    1.82     1.84   0.34708  5.9259
 2.60000    1.82     1.84   0.34702  5.9257
 2.65000    1.82     1.84   0.34687  5.9258
 2.70000    1.82     1.84   0.34656  5.9259
 2.75000    1.82     1.84   0.34681  5.9256
 2.80000    1.82     1.84   0.34653  5.9257
 2.85000    1.82     1.84   0.34663  5.9256
 2.90000    1.82     1.85   0.34643  5.9256
 2.95000    1.82     1.85   0.34636  5.9255
 3.00000    1.82     1.85   0.34662  5.9253
 3.05000    1.82     1.85   0.34643  5.9253
 3.10000    1.82     1.85   0.34650  5.9254
 3.15000    1.82     1.85   0.34651  5.9252
 3.20000    1.82     1.85   0.34600  5.9256
 3.25000    1.82     1.85   0.34606  5.9256
 3.30000    1.82     1.85   0.34614  5.9256
 3.35000    1.82     1.85   0.34616  5.9257
 3.40000    1.82     1.85   0.34608  5.9256
 3.45000    1.82     1.85   0.34594  5.9257
 3.50000    1.82     1.85   0.34615  5.9258
 3.55000    1.82     1.85   0.34610  5.9253
 3.60000    1.82     1.85   0.34603  5.9253
 3.65000    1.83     1.85   0.34586  5.9255
 3.70000    1.83     1.85   0.34583  5.9259
 3.75000    1.83     1.85   0.34578  5.9261
 3.80000    1.83     1.85   0.34568  5.9263
 3.85000    1.83     1.85   0.34541  5.9265
 3.90000    1.83     1.85   0.34554  5.9266
 3.95000    1.83     1.85   0.34550  5.9264
 4.00000    1.83     1.86   0.34538  5.9260
 4.05000    1.83     1.86   0.34564  5.9268
 4.10000    1.83     1.86   0.34493  5.9271
 4.15000    1.83     1.86   0.34496  5.9268
 4.20000    1.83     1.86   0.34522  5.9270
 4.25000    1.83     1.86   0.34480  5.9269
 4.30000    1.83     1.86   0.34493  5.9270
 4.35000    1.83     1.86   0.34477  5.9270
 4.40000    1.83     1.86   0.34443  5.9270
 4.45000    1.83     1.86   0.34451  5.9270
 4.50000    1.83     1.86   0.34463  5.9272
 4.55000    1.83     1.86   0.34467  5.9271
 4.60000    1.83     1.86   0.34469  5.9270
 4.65000    1.83     1.86   0.34438  5.9272
 4.70000    1.83     1.86   0.34461  5.9275
 4.75000    1.83     1.86   0.34406  5.9276
 4.80000    1.83     1.86   0.34406  5.9271
 4.85000    1.83     1.87   0.34387  5.9272
 4.90000    1.83     1.87   0.34346  5.9272
 4.95000    1.83     1.87   0.34396  5.9272
 5.00000    1.83     1.87   0.34388  5.9271
 5.05000    1.83     1.87   0.34370  5.9273
 5.10000    1.83     1.87   0.34365  5.9270
 5.15000    1.83     1.87   0.34371  5.9272
 5.20000    1.83     1.87   0.34365  5.9275
 5.25000    1.83     1.87   0.34373  5.9275
 5.30000    1.83     1.87   0.34353  5.9277
 5.35000    1.83     1.87   0.34350  5.9276
 5.40000    1.83     1.87   0.34353  5.9275
 5.45000    1.83     1.87   0.34377  5.9277
 5.50000    1.83     1.87   0.34354  5.9274
 5.55000    1.83     1.87   0.34327  5.9280
 5.60000    1.84     1.87   0.34313  5.9281
 5.65000    1.84     1.87   0.34301  5.9282
 5.70000    1.84     1.87   0.34301  5.9278
 5.75000    1.84     1.87   0.34309  5.9279
 5.80000    1.84     1.87   0.34290  5.9280
 5.85000    1.84     1.87   0.34289  5.9280
 5.90000    1.84     1.87   0.34273  5.9280
 5.95000    1.84     1.87   0.34267  5.9280
 6.00000    1.84     1.87   0.34239  5.9280
 6.05000    1.84     1.87   0.34260  5.9282
 6.10000    1.84     1.88   0.34246  5.9280
 6.15000    1.84     1.88   0.34241  5.9281
 6.20000    1.84     1.88   0.34234  5.9283
 6.25000    1.84     1.88   0.34226  5.9284
 6.30000    1.84     1.88   0.34211  5.9285
 6.35000    1.84     1.88   0.34211  5.9282
 6.40000    1.84     1.88   0.34199  5.9283
 6.45000    1.84     1.88   0.34199  5.9284
 6.50000    1.84     1.88   0.34189  5.9283
 6.55000    1.84     1.88   0.34173  5.9283
 6.60000    1.84     1.88   0.34209  5.9287
 6.65000    1.84     1.88   0.34177  5.9288
 6.70000    1.84     1.88   0.34198  5.9289
 6.75000    1.84     1.88   0.34182  5.9288
 6.80000    1.84     1.88   0.34189  5.9288
 6.85000    1.84     1.88   0.34150  5.9290
 6.90000    1.84     1.88   0.34161  5.9288
 6.95000    1.85     1.88   0.34143  5.9289
 7.00000    1.85     1.88   0.34119  5.9289
 7.00000    1.85     1.88   0.34109  5.9289
 6.95000    1.85     1.88   0.34160  5.9285
 6.90000    1.85     1.88   0.34153  5.9286
 6.85000    1.85     1.88   0.34169  5.9284
 6.80000    1.85     1.88   0.34179  5.9286
 6.75000    1.85     1.88   0.34166  5.9285
 6.70000    1.85     1.88   0.34173  5.9287
 6.65000    1.85     1.88   0.34170  5.9290
 6.60000    1.85     1.88   0.34187  5.9289
 6.55000    1.85     1.88   0.34201  5.9287
 6.50000    1.85     1.88   0.34189  5.9287
 6.45000    1.85     1.88   0.34230  5.9286
 6.40000    1.85     1.88   0.34227  5.9285
 6.35000    1.85     1.88   0.34200  5.9284
 6.30000    1.85     1.88   0.34226  5.9281
 6.25000    1.85     1.88   0.34219  5.9284
 6.20000    1.85     1.88   0.34222  5.9287
 6.15000    1.85     1.88   0.34215  5.9285
 6.10000    1.85     1.88   0.34256  5.9282
 6.05000    1.84     1.88   0.34232  5.9282
 6.00000    1.84     1.88   0.34284  5.9284
 5.95000    1.84     1.88   0.34272  5.9285
 5.90000    1.84     1.88   0.34247  5.9287
 5.85000    1.84     1.88   0.34267  5.9287
 5.80000    1.84     1.88   0.34295  5.9287
 5.75000    1.84     1.88   0.34271  5.9287
 5.70000    1.84     1.88   0.34313  5.9285
 5.65000    1.84     1.88   0.34333  5.9285
 5.60000    1.84     1.88   0.34319  5.9283
 5.55000    1.84     1.88   0.34336  5.9285
 5.50000    1.84     1.88   0.34339  5.9287
 5.45000    1.84     1.88   0.34350  5.9288
 5.40000    1.84     1.88   0.34355  5.9285
 5.35000    1.84     1.88   0.34359  5.9286
 5.30000    1.84     1.88   0.34363  5.9287
 5.25000    1.84     1.88   0.34372  5.9286
 5.20000    1.84     1.88   0.34382  5.9282
 5.15000    1.84     1.88   0.34379  5.9283
 5.10000    1.84     1.88   0.34394  5.9281
 5.05000    1.84     1.87   0.34402  5.9282
 5.00000    1.84     1.87   0.34423  5.9286
 4.95000    1.84     1.87   0.34424  5.9285
 4.90000    1.84     1.87   0.34420  5.9283
 4.85000    1.84     1.87   0.34389  5.9286
 4.80000    1.84     1.87   0.34407  5.9287
 4.75000    1.84     1.87   0.34428  5.9287
 4.70000    1.84     1.87   0.34396  5.9283
 4.65000    1.84     1.87   0.34410  5.9287
 4.60000    1.84     1.87   0.34427  5.9286
 4.55000    1.84     1.87   0.34437  5.9285
 4.50000    1.84     1.87   0.34460  5.9284
 4.45000    1.84     1.87   0.34463  5.9278
 4.40000    1.84     1.87   0.34473  5.9278
 4.35000    1.84     1.87   0.34470  5.9281
 4.30000    1.84     1.87   0.34470  5.9286
 4.25000    1.84     1.87   0.34467  5.9284
 4.20000    1.84     1.87   0.34491  5.9283
 4.15000    1.84     1.87   0.34486  5.9282
 4.10000    1.84     1.87   0.34494  5.9283
 4.05000    1.84     1.87   0.34487  5.9282
 4.00000    1.83     1.86   0.34493  5.9281
 3.95000    1.83     1.86   0.34519  5.9281
 3.90000    1.83     1.86   0.34521  5.9281
 3.85000    1.83     1.86   0.34535  5.9281
 3.80000    1.83     1.86   0.34489  5.9286
 3.75000    1.83     1.86   0.34509  5.9286
 3.70000    1.83     1.86   0.34512  5.9281
 3.65000    1.83     1.86   0.34548  5.9283
 3.60000    1.83     1.86   0.34521  5.9281
 3.55000    1.83     1.86   0.34541  5.9279
 3.50000    1.83     1.86   0.34575  5.9273
 3.45000    1.83     1.86   0.34570  5.9274
 3.40000    1.83     1.86   0.34578  5.9273
 3.35000    1.83     1.86   0.34577  5.9272
 3.30000    1.83     1.86   0.34578  5.9276
 3.25000    1.83     1.86   0.34578  5.9274
 3.20000    1.83     1.86   0.34589  5.9275
 3.15000    1.83     1.86   0.34580  5.9277
 3.10000    1.83     1.86   0.34594  5.9279
 3.05000    1.83     1.86   0.34576  5.9275
 3.00000    1.83     1.85   0.34590  5.9275
 2.95000    1.83     1.85   0.34580  5.9275
 2.90000    1.83     1.85   0.34612  5.9272
 2.85000    1.83     1.85   0.34601  5.9274
 2.80000    1.83     1.85   0.34591  5.9276
 2.75000    1.83     1.85   0.34593  5.9276
 2.70000    1.83     1.85   0.34630  5.9279
 2.65000    1.83     1.85   0.34609  5.9280
 2.60000    1.83     1.85   0.34636  5.9281
 2.55000    1.83     1.85   0.34652  5.9282
 2.50000    1.83     1.85   0.34685  5.9284
 2.45000    1.82     1.85   0.34734  5.9285
 2.40000    1.82     1.85   0.34689  5.9284
 2.35000    1.82     1.85   0.34774  5.9279
 2.30000    1.82     1.85   0.34787  5.9275
 2.25000    1.82     1.85   0.34802  5.9277
 2.20000    1.82     1.85   0.34816  5.9277
 2.15000    1.82     1.85   0.34836  5.9274
 2.10000    1.82     1.85   0.34856  5.9269
 2.05000    1.82     1.84   0.34870  5.9266
 2.00000    1.82     1.84   0.34889  5.9258
 1.95000    1.82     1.84   0.34872  5.9253
 1.90000    1.82     1.84   0.34826  5.9251
 1.85000    1.82     1.84   0.34778  5.9248
 1.80000    1.82     1.84   0.34734  5.9246
 1.75000    1.82     1.84   0.34671  5.9248
 1.70000    1.82     1.84   0.34676  5.9254
 1.65000    1.82     1.84   0.34642  5.9258
 1.60000    1.82     1.84   0.34703  5.9258
 1.55000    1.82     1.84   0.34706  5.9260
 1.50000    1.82     1.84   0.34716  5.9264
 1.45000    1.82     1.84   0.34705  5.9259
 1.40000    1.82     1.84   0.34761  5.9258
 1.35000    1.82     1.84   0.34770  5.9256
 1.30000    1.82     1.84   0.34782  5.9258
 1.25000    1.82     1.84   0.34787  5.9257
 1.20000    1.82     1.84   0.34815  5.9254
 1.15000    1.82     1.84   0.34794  5.9252
 1.10000    1.82     1.84   0.34825  5.9250
 1.05000    1.82     1.84   0.34806  5.9249
 1.00000    1.82     1.84   0.34831  5.9248
 0.95000    1.82     1.84   0.34833  5.9245
 0.90000    1.82     1.84   0.34836  5.9241
 0.85000    1.82     1.84   0.34803  5.9237
 0.80000    1.82     1.83   0.34846  5.9239
 0.75000    1.82     1.83   0.34805  5.9236
 0.70000    1.82     1.83   0.34810  5.9231
 0.65000    1.82     1.83   0.34784  5.9229
 0.60000    1.82     1.83   0.34760  5.9228
 0.55000    1.82     1.83   0.34744  5.9228
 0.50000    1.82     1.83   0.34718  5.9228
 0.45000    1.82     1.83   0.34723  5.9226
 0.40000    1.82     1.83   0.34686  5.9227
 0.35000    1.82     1.83   0.34709  5.9229
 0.30000    1.82     1.83   0.34714  5.9228
 0.25000    1.82     1.83   0.34662  5.9231
 0.20000    1.82     1.83   0.34705  5.9228
 0.15000    1.82     1.83   0.34712  5.9228
 0.10000    1.82     1.83   0.34689  5.9227
 0.05000    1.82     1.83   0.34657  5.9226
-0.00000    1.82     1.83   0.34655  5.9227
