 Field[T] Tsmpl[K] Tcntr[K] Signal   Mirror[MM]
 0.00000    1.86     1.88   0.14803  8.2450
 0.05000    1.86     1.88   0.14821  8.2458
 0.10000    1.86     1.88   0.14820  8.2438
 0.15000    1.86     1.88   0.14816  8.2430
 0.20000    1.86     1.88   0.14811  8.2430
 0.25000    1.86     1.88   0.14822  8.2424
 0.30000    1.86     1.88   0.14804  8.2424
 0.35000    1.86     1.88   0.14799  8.2420
 0.40000    1.86     1.88   0.14773  8.2416
 0.45000    1.86     1.88   0.14749  8.2412
 0.50000    1.86     1.88   0.14778  8.2400
 0.55000    1.86     1.88   0.14767  8.2398
 0.60000    1.86     1.88   0.14786  8.2391
 0.65000    1.86     1.88   0.14791  8.2387
 0.70000    1.86     1.88   0.14809  8.2384
 0.75000    1.86     1.88   0.14829  8.2373
 0.80000    1.86     1.88   0.14842  8.2370
 0.85000    1.86     1.88   0.14862  8.2360
 0.90000    1.86     1.88   0.14845  8.2367
 0.95000    1.86     1.88   0.14874  8.2363
 1.00000    1.86     1.88   0.14902  8.2366
 1.05000    1.86     1.88   0.14948  8.2354
 1.10000    1.86     1.88   0.14959  8.2370
 1.15000    1.86     1.88   0.15006  8.2367
 1.20000    1.86     1.88   0.15006  8.2381
 1.25000    1.86     1.88   0.15066  8.2387
 1.30000    1.86     1.88   0.15052  8.2403
 1.35000    1.86     1.88   0.15084  8.2411
 1.40000    1.86     1.88   0.15096  8.2427
 1.45000    1.86     1.88   0.15124  8.2443
 1.50000    1.86     1.88   0.15148  8.2452
 1.55000    1.86     1.88   0.15131  8.2468
 1.60000    1.86     1.88   0.15124  8.2484
 1.65000    1.86     1.88   0.15141  8.2500
 1.70000    1.86     1.89   0.15132  8.2512
 1.75000    1.86     1.89   0.15142  8.2531
 1.80000    1.86     1.89   0.15156  8.2546
 1.85000    1.86     1.89   0.15138  8.2553
 1.90000    1.86     1.89   0.15146  8.2568
 1.95000    1.86     1.89   0.15121  8.2579
 2.00000    1.86     1.89   0.15126  8.2592
 2.05000    1.86     1.89   0.15103  8.2604
 2.10000    1.86     1.89   0.15076  8.2620
 2.15000    1.86     1.89   0.15055  8.2623
 2.20000    1.86     1.89   0.15037  8.2635
 2.25000    1.86     1.89   0.14997  8.2648
 2.30000    1.86     1.89   0.14953  8.2653
 2.35000    1.86     1.89   0.14944  8.2660
 2.40000    1.86     1.89   0.14908  8.2666
 2.45000    1.86     1.89   0.14885  8.2669
 2.50000    1.86     1.89   0.14847  8.2680
 2.55000    1.86     1.89   0.14825  8.2681
 2.60000    1.86     1.89   0.14800  8.2677
 2.65000    1.86     1.89   0.14824  8.2679
 2.70000    1.87     1.89   0.14794  8.2679
 2.75000    1.87     1.89   0.14778  8.2682
 2.80000    1.87     1.89   0.14757  8.2680
 2.85000    1.87     1.89   0.14740  8.2678
 2.90000    1.87     1.90   0.14715  8.2675
 2.95000    1.87     1.90   0.14702  8.2681
 3.00000    1.87     1.90   0.14703  8.2674
 3.05000    1.87     1.90   0.14677  8.2675
 3.10000    1.87     1.90   0.14668  8.2672
 3.15000    1.87     1.90   0.14650  8.2666
 3.20000    1.87     1.90   0.14650  8.2664
 3.25000    1.87     1.90   0.14636  8.2665
 3.30000    1.87     1.90   0.14616  8.2663
 3.35000    1.87     1.90   0.14612  8.2657
 3.40000    1.87     1.90   0.14567  8.2663
 3.45000    1.87     1.90   0.14569  8.2654
 3.50000    1.87     1.90   0.14598  8.2648
 3.55000    1.87     1.90   0.14566  8.2649
 3.60000    1.87     1.90   0.14561  8.2640
 3.65000    1.87     1.90   0.14566  8.2632
 3.70000    1.87     1.90   0.14558  8.2633
 3.75000    1.87     1.90   0.14553  8.2631
 3.80000    1.87     1.91   0.14559  8.2627
 3.85000    1.87     1.91   0.14541  8.2622
 3.90000    1.87     1.91   0.14539  8.2627
 3.95000    1.87     1.91   0.14532  8.2618
 4.00000    1.88     1.91   0.14537  8.2622
 4.05000    1.88     1.91   0.14548  8.2616
 4.10000    1.88     1.91   0.14530  8.2621
 4.15000    1.88     1.91   0.14498  8.2613
 4.20000    1.88     1.91   0.14494  8.2618
 4.25000    1.88     1.91   0.14480  8.2616
 4.30000    1.88     1.91   0.14510  8.2612
 4.35000    1.88     1.91   0.14514  8.2614
 4.40000    1.88     1.91   0.14499  8.2613
 4.45000    1.88     1.91   0.14504  8.2611
 4.50000    1.88     1.91   0.14508  8.2611
 4.55000    1.88     1.91   0.14507  8.2608
 4.60000    1.88     1.91   0.14488  8.2613
 4.65000    1.88     1.91   0.14511  8.2604
 4.70000    1.88     1.92   0.14523  8.2605
 4.75000    1.88     1.92   0.14495  8.2604
 4.80000    1.88     1.92   0.14509  8.2595
 4.85000    1.88     1.92   0.14505  8.2599
 4.90000    1.88     1.92   0.14492  8.2606
 4.95000    1.88     1.92   0.14490  8.2601
 5.00000    1.88     1.92   0.14511  8.2605
 5.05000    1.88     1.92   0.14514  8.2600
 5.10000    1.88     1.92   0.14526  8.2597
 5.15000    1.88     1.92   0.14508  8.2598
 5.20000    1.88     1.92   0.14492  8.2599
 5.25000    1.88     1.92   0.14505  8.2597
 5.30000    1.88     1.92   0.14498  8.2598
 5.35000    1.88     1.92   0.14476  8.2597
 5.40000    1.88     1.92   0.14499  8.2599
 5.45000    1.89     1.92   0.14492  8.2601
 5.50000    1.89     1.92   0.14498  8.2598
 5.55000    1.89     1.92   0.14484  8.2598
 5.60000    1.89     1.93   0.14496  8.2600
 5.65000    1.89     1.93   0.14501  8.2596
 5.70000    1.89     1.93   0.14484  8.2598
 5.75000    1.89     1.93   0.14498  8.2600
 5.80000    1.89     1.93   0.14478  8.2606
 5.85000    1.89     1.93   0.14504  8.2604
 5.90000    1.89     1.93   0.14512  8.2607
 5.95000    1.89     1.93   0.14506  8.2608
 6.00000    1.89     1.93   0.14479  8.2605
 6.05000    1.89     1.93   0.14472  8.2614
 6.10000    1.89     1.93   0.14480  8.2603
 6.15000    1.89     1.93   0.14470  8.2607
 6.20000    1.89     1.93   0.14472  8.2612
 6.25000    1.89     1.93   0.14443  8.2618
 6.30000    1.89     1.93   0.14441  8.2619
 6.35000    1.89     1.93   0.14456  8.2614
 6.40000    1.89     1.93   0.14448  8.2623
 6.45000    1.89     1.93   0.14461  8.2612
 6.50000    1.89     1.93   0.14468  8.2616
 6.55000    1.89     1.93   0.14465  8.2617
 6.60000    1.89     1.93   0.14470  8.2624
 6.65000    1.89     1.93   0.14473  8.2625
 6.70000    1.89     1.94   0.14461  8.2628
 6.75000    1.89     1.94   0.14454  8.2629
 6.80000    1.89     1.94   0.14445  8.2626
 6.85000    1.89     1.94   0.14435  8.2639
 6.90000    1.89     1.94   0.14443  8.2635
 6.95000    1.89     1.94   0.14439  8.2639
 7.00000    1.89     1.94   0.14466  8.2635
 7.00000    1.89     1.94   0.14448  8.2638
 6.95000    1.90     1.94   0.14446  8.2630
 6.90000    1.90     1.94   0.14470  8.2629
 6.85000    1.90     1.94   0.14465  8.2630
 6.80000    1.90     1.94   0.14435  8.2629
 6.75000    1.90     1.94   0.14459  8.2626
 6.70000    1.90     1.94   0.14433  8.2627
 6.65000    1.90     1.94   0.14463  8.2627
 6.60000    1.90     1.94   0.14423  8.2629
 6.55000    1.90     1.94   0.14438  8.2624
 6.50000    1.90     1.94   0.14448  8.2624
 6.45000    1.90     1.94   0.14433  8.2624
 6.40000    1.90     1.94   0.14452  8.2623
 6.35000    1.90     1.94   0.14470  8.2622
 6.30000    1.90     1.94   0.14456  8.2623
 6.25000    1.90     1.94   0.14442  8.2619
 6.20000    1.90     1.94   0.14442  8.2617
 6.15000    1.90     1.94   0.14455  8.2620
 6.10000    1.90     1.94   0.14453  8.2621
 6.05000    1.90     1.94   0.14438  8.2619
 6.00000    1.90     1.94   0.14444  8.2617
 5.95000    1.90     1.94   0.14419  8.2616
 5.90000    1.90     1.94   0.14425  8.2617
 5.85000    1.90     1.94   0.14431  8.2622
 5.80000    1.90     1.93   0.14447  8.2614
 5.75000    1.90     1.93   0.14441  8.2616
 5.70000    1.90     1.93   0.14442  8.2624
 5.65000    1.89     1.93   0.14430  8.2630
 5.60000    1.89     1.93   0.14432  8.2627
 5.55000    1.89     1.93   0.14439  8.2622
 5.50000    1.89     1.93   0.14442  8.2620
 5.45000    1.89     1.93   0.14442  8.2621
 5.40000    1.89     1.93   0.14428  8.2631
 5.35000    1.89     1.93   0.14414  8.2631
 5.30000    1.89     1.93   0.14442  8.2628
 5.25000    1.89     1.93   0.14428  8.2629
 5.20000    1.89     1.93   0.14413  8.2631
 5.15000    1.89     1.93   0.14421  8.2629
 5.10000    1.89     1.93   0.14425  8.2634
 5.05000    1.89     1.93   0.14422  8.2636
 5.00000    1.89     1.93   0.14433  8.2631
 4.95000    1.89     1.93   0.14444  8.2633
 4.90000    1.89     1.93   0.14432  8.2631
 4.85000    1.89     1.93   0.14430  8.2633
 4.80000    1.89     1.93   0.14420  8.2637
 4.75000    1.89     1.93   0.14435  8.2639
 4.70000    1.89     1.93   0.14424  8.2640
 4.65000    1.89     1.93   0.14431  8.2646
 4.60000    1.89     1.93   0.14438  8.2646
 4.55000    1.89     1.93   0.14415  8.2658
 4.50000    1.89     1.93   0.14415  8.2652
 4.45000    1.89     1.93   0.14432  8.2656
 4.40000    1.89     1.93   0.14428  8.2655
 4.35000    1.89     1.93   0.14431  8.2662
 4.30000    1.89     1.93   0.14436  8.2660
 4.25000    1.89     1.93   0.14432  8.2661
 4.20000    1.89     1.92   0.14429  8.2665
 4.15000    1.89     1.92   0.14452  8.2664
 4.10000    1.89     1.92   0.14426  8.2669
 4.05000    1.89     1.92   0.14425  8.2670
 4.00000    1.89     1.92   0.14437  8.2674
 3.95000    1.89     1.92   0.14430  8.2678
 3.90000    1.89     1.92   0.14422  8.2682
 3.85000    1.89     1.92   0.14396  8.2685
 3.80000    1.89     1.92   0.14427  8.2686
 3.75000    1.89     1.92   0.14421  8.2689
 3.70000    1.89     1.92   0.14438  8.2685
 3.65000    1.89     1.92   0.14427  8.2691
 3.60000    1.89     1.92   0.14420  8.2692
 3.55000    1.89     1.92   0.14425  8.2698
 3.50000    1.89     1.92   0.14451  8.2699
 3.45000    1.89     1.92   0.14456  8.2708
 3.40000    1.89     1.92   0.14421  8.2712
 3.35000    1.89     1.92   0.14484  8.2713
 3.30000    1.88     1.92   0.14444  8.2719
 3.25000    1.88     1.92   0.14462  8.2722
 3.20000    1.88     1.92   0.14459  8.2739
 3.15000    1.88     1.92   0.14398  8.2795
 3.10000    1.88     1.92   0.14460  8.2749
 3.05000    1.88     1.92   0.14446  8.2772
 3.00000    1.88     1.91   0.14476  8.2769
 2.95000    1.88     1.91   0.14478  8.2767
 2.90000    1.88     1.91   0.14510  8.2757
