 Field[T] Tsmpl[K] Tcntr[K] Signal   Mirror[MM]
 0.00000    1.81     1.83   1.56732  5.0085
 0.05000    1.81     1.83   1.57082  5.0086
 0.10000    1.81     1.83   1.57389  5.0093
 0.15000    1.81     1.83   1.57775  5.0096
 0.20000    1.81     1.83   1.58153  5.0097
 0.25000    1.81     1.83   1.58555  5.0094
 0.30000    1.81     1.83   1.58855  5.0096
 0.35000    1.81     1.83   1.59129  5.0099
 0.40000    1.81     1.83   1.59409  5.0104
 0.45000    1.81     1.83   1.59467  5.0102
 0.50000    1.81     1.83   1.59725  5.0103
 0.55000    1.81     1.82   1.60171  5.0104
 0.60000    1.81     1.82   1.60425  5.0105
 0.65000    1.81     1.82   1.60738  5.0104
 0.70000    1.81     1.82   1.60936  5.0110
 0.75000    1.81     1.82   1.61152  5.0110
 0.80000    1.81     1.82   1.61329  5.0108
 0.85000    1.81     1.82   1.61533  5.0111
 0.90000    1.81     1.82   1.61724  5.0117
 0.95000    1.81     1.82   1.61944  5.0114
 1.00000    1.81     1.82   1.62014  5.0114
 1.05000    1.81     1.82   1.62216  5.0115
 1.10000    1.81     1.82   1.62437  5.0116
 1.15000    1.81     1.83   1.62606  5.0118
 1.20000    1.81     1.83   1.62721  5.0120
 1.25000    1.81     1.83   1.62817  5.0122
 1.30000    1.81     1.83   1.62872  5.0123
 1.35000    1.81     1.83   1.63011  5.0125
 1.40000    1.81     1.83   1.63121  5.0126
 1.45000    1.81     1.83   1.63173  5.0125
 1.50000    1.81     1.83   1.63235  5.0126
 1.55000    1.81     1.83   1.63249  5.0124
 1.60000    1.81     1.83   1.63365  5.0128
 1.65000    1.81     1.83   1.63552  5.0126
 1.70000    1.81     1.83   1.63709  5.0128
 1.75000    1.81     1.83   1.63839  5.0128
 1.80000    1.81     1.83   1.63859  5.0129
 1.85000    1.81     1.83   1.63882  5.0131
 1.90000    1.81     1.83   1.63929  5.0134
 1.95000    1.81     1.83   1.64002  5.0132
 2.00000    1.81     1.83   1.64073  5.0135
 2.05000    1.81     1.83   1.64147  5.0137
 2.10000    1.81     1.83   1.64075  5.0145
 2.15000    1.81     1.83   1.64266  5.0134
 2.20000    1.81     1.83   1.64309  5.0137
 2.25000    1.81     1.83   1.64336  5.0132
 2.30000    1.81     1.83   1.64431  5.0134
 2.35000    1.81     1.84   1.64618  5.0129
 2.40000    1.81     1.84   1.64703  5.0132
 2.45000    1.81     1.84   1.64897  5.0129
 2.50000    1.81     1.84   1.64885  5.0131
 2.55000    1.81     1.84   1.64964  5.0136
 2.60000    1.81     1.84   1.64897  5.0136
 2.65000    1.81     1.84   1.64894  5.0140
 2.70000    1.81     1.84   1.64918  5.0147
 2.75000    1.81     1.84   1.64955  5.0141
 2.80000    1.81     1.84   1.64904  5.0146
 2.85000    1.81     1.84   1.64933  5.0142
 2.90000    1.81     1.84   1.64967  5.0145
 2.95000    1.81     1.84   1.65003  5.0141
 3.00000    1.81     1.84   1.65065  5.0145
 3.05000    1.81     1.84   1.65078  5.0144
 3.10000    1.81     1.84   1.65258  5.0138
 3.15000    1.82     1.84   1.65333  5.0133
 3.20000    1.82     1.84   1.65433  5.0139
 3.25000    1.82     1.84   1.65452  5.0138
 3.30000    1.82     1.84   1.65462  5.0141
 3.35000    1.82     1.84   1.65158  5.0147
 3.40000    1.82     1.84   1.65551  5.0148
 3.45000    1.82     1.84   1.65705  5.0142
 3.50000    1.82     1.85   1.65729  5.0141
 3.55000    1.82     1.85   1.65861  5.0141
 3.60000    1.82     1.85   1.65900  5.0142
 3.65000    1.82     1.85   1.65665  5.0142
 3.70000    1.82     1.85   1.65857  5.0137
 3.75000    1.82     1.85   1.66044  5.0139
 3.80000    1.82     1.85   1.66166  5.0142
 3.85000    1.82     1.85   1.66228  5.0143
 3.90000    1.82     1.85   1.66265  5.0147
 3.95000    1.82     1.85   1.66371  5.0143
 4.00000    1.82     1.85   1.66349  5.0146
 4.05000    1.82     1.85   1.66599  5.0147
 4.10000    1.82     1.85   1.66627  5.0150
 4.15000    1.82     1.85   1.66626  5.0148
 4.20000    1.82     1.85   1.66673  5.0149
 4.25000    1.82     1.85   1.66736  5.0148
 4.30000    1.82     1.85   1.66692  5.0154
 4.35000    1.82     1.85   1.66734  5.0153
 4.40000    1.82     1.86   1.66811  5.0150
 4.45000    1.82     1.86   1.66863  5.0156
 4.50000    1.82     1.86   1.66876  5.0155
 4.55000    1.82     1.86   1.66852  5.0155
 4.60000    1.82     1.86   1.66891  5.0156
 4.65000    1.82     1.86   1.66819  5.0155
 4.70000    1.83     1.86   1.66867  5.0157
 4.75000    1.83     1.86   1.66873  5.0158
 4.80000    1.83     1.86   1.66823  5.0161
 4.85000    1.83     1.86   1.66718  5.0157
 4.90000    1.83     1.86   1.66799  5.0163
 4.95000    1.83     1.86   1.66854  5.0164
 5.00000    1.83     1.86   1.66819  5.0163
 5.05000    1.83     1.86   1.66873  5.0164
 5.10000    1.83     1.86   1.66742  5.0163
 5.15000    1.83     1.86   1.66784  5.0163
 5.20000    1.83     1.86   1.66815  5.0163
 5.25000    1.83     1.86   1.66760  5.0168
 5.30000    1.83     1.86   1.66783  5.0166
 5.35000    1.83     1.87   1.66658  5.0166
 5.40000    1.83     1.87   1.66666  5.0169
 5.45000    1.83     1.87   1.66727  5.0169
 5.50000    1.83     1.87   1.66692  5.0169
 5.55000    1.83     1.87   1.66623  5.0174
 5.60000    1.83     1.87   1.66577  5.0172
 5.65000    1.83     1.87   1.66566  5.0172
 5.70000    1.83     1.87   1.66615  5.0173
 5.75000    1.83     1.87   1.66552  5.0172
 5.80000    1.83     1.87   1.66626  5.0190
 5.85000    1.83     1.87   1.66568  5.0174
 5.90000    1.83     1.87   1.66493  5.0173
 5.95000    1.83     1.87   1.65566  5.0196
 6.00000    1.84     1.87   1.66130  5.0180
 6.05000    1.84     1.87   1.66259  5.0165
 6.10000    1.84     1.87   1.66361  5.0162
 6.15000    1.84     1.87   1.66380  5.0164
 6.20000    1.84     1.87   1.66479  5.0163
 6.25000    1.84     1.88   1.66458  5.0163
 6.30000    1.84     1.88   1.66414  5.0162
 6.35000    1.84     1.88   1.66343  5.0160
 6.40000    1.84     1.88   1.66273  5.0164
 6.45000    1.84     1.88   1.66337  5.0161
 6.50000    1.84     1.88   1.66347  5.0162
 6.55000    1.84     1.88   1.66325  5.0165
 6.60000    1.84     1.88   1.66322  5.0163
 6.65000    1.84     1.88   1.66328  5.0164
 6.70000    1.84     1.88   1.66257  5.0167
 6.75000    1.84     1.88   1.65370  5.0188
 6.80000    1.84     1.88   1.66178  5.0170
 6.85000    1.84     1.88   1.66265  5.0163
 6.90000    1.84     1.88   1.66259  5.0162
 6.95000    1.84     1.88   1.66247  5.0165
 7.00000    1.84     1.88   1.66182  5.0163
