 Field[T] Tsmpl[K] Tcntr[K] Signal   Mirror[MM]
 0.00000    1.84     1.87   0.39806  8.0204
 0.05000    1.84     1.87   0.39814  8.0197
 0.10000    1.84     1.87   0.39875  8.0205
 0.15000    1.85     1.87   0.39859  8.0206
 0.20000    1.85     1.87   0.39920  8.0202
 0.25000    1.85     1.87   0.39890  8.0199
 0.30000    1.85     1.87   0.39841  8.0194
 0.35000    1.85     1.87   0.39856  8.0199
 0.40000    1.85     1.87   0.39794  8.0206
 0.45000    1.85     1.87   0.39847  8.0204
 0.50000    1.85     1.87   0.39864  8.0209
 0.55000    1.85     1.87   0.39888  8.0196
 0.60000    1.85     1.87   0.39832  8.0200
 0.65000    1.85     1.87   0.39935  8.0202
 0.70000    1.85     1.87   0.39888  8.0195
 0.75000    1.85     1.87   0.39916  8.0194
 0.80000    1.85     1.87   0.40038  8.0191
 0.85000    1.85     1.87   0.40073  8.0195
 0.90000    1.85     1.87   0.40101  8.0198
 0.95000    1.85     1.87   0.40099  8.0204
 1.00000    1.85     1.87   0.40054  8.0207
 1.05000    1.85     1.87   0.40134  8.0216
 1.10000    1.85     1.87   0.40221  8.0231
 1.15000    1.85     1.87   0.40210  8.0244
 1.20000    1.85     1.87   0.40460  8.0250
 1.25000    1.85     1.87   0.40455  8.0273
 1.30000    1.85     1.87   0.40540  8.0286
 1.35000    1.85     1.87   0.40462  8.0314
 1.40000    1.85     1.87   0.40419  8.0328
 1.45000    1.85     1.87   0.40292  8.0343
 1.50000    1.85     1.87   0.40290  8.0356
 1.55000    1.85     1.87   0.40237  8.0360
 1.60000    1.85     1.87   0.40159  8.0369
 1.65000    1.85     1.87   0.40048  8.0381
 1.70000    1.85     1.87   0.40097  8.0377
 1.75000    1.85     1.87   0.40022  8.0387
 1.80000    1.85     1.87   0.39974  8.0388
 1.85000    1.85     1.87   0.39954  8.0398
 1.90000    1.85     1.88   0.39878  8.0395
 1.95000    1.85     1.88   0.39870  8.0399
 2.00000    1.85     1.88   0.39833  8.0396
 2.05000    1.85     1.88   0.39841  8.0406
 2.10000    1.85     1.88   0.39784  8.0409
 2.15000    1.85     1.88   0.39765  8.0413
 2.20000    1.85     1.88   0.39733  8.0412
 2.25000    1.85     1.88   0.39643  8.0415
 2.30000    1.85     1.88   0.39636  8.0423
 2.35000    1.85     1.88   0.39626  8.0425
 2.40000    1.85     1.88   0.39656  8.0432
 2.45000    1.85     1.88   0.39624  8.0427
 2.50000    1.85     1.88   0.39566  8.0434
 2.55000    1.85     1.88   0.39493  8.0441
 2.60000    1.85     1.88   0.39482  8.0440
 2.65000    1.85     1.88   0.39509  8.0439
 2.70000    1.85     1.88   0.39445  8.0446
 2.75000    1.85     1.88   0.39399  8.0448
 2.80000    1.85     1.88   0.39393  8.0445
 2.85000    1.85     1.88   0.39322  8.0448
 2.90000    1.85     1.89   0.39330  8.0449
 2.95000    1.86     1.89   0.39288  8.0449
 3.00000    1.86     1.89   0.39343  8.0458
 3.05000    1.86     1.89   0.39253  8.0455
 3.10000    1.86     1.89   0.39249  8.0459
 3.15000    1.86     1.89   0.39223  8.0464
 3.20000    1.86     1.89   0.39189  8.0465
 3.25000    1.86     1.89   0.39120  8.0477
 3.30000    1.86     1.89   0.39113  8.0464
 3.35000    1.86     1.89   0.39031  8.0466
 3.40000    1.86     1.89   0.39069  8.0462
 3.45000    1.86     1.89   0.39016  8.0468
 3.50000    1.86     1.89   0.39083  8.0467
 3.55000    1.86     1.89   0.38905  8.0503
 3.60000    1.86     1.89   0.38983  8.0465
 3.65000    1.86     1.89   0.38987  8.0465
 3.70000    1.86     1.89   0.38954  8.0463
 3.75000    1.86     1.89   0.38930  8.0458
 3.80000    1.86     1.89   0.38894  8.0461
 3.85000    1.86     1.89   0.38868  8.0460
 3.90000    1.86     1.89   0.38871  8.0448
 3.95000    1.86     1.90   0.38926  8.0456
 4.00000    1.86     1.90   0.38876  8.0455
 4.05000    1.86     1.90   0.38728  8.0467
 4.10000    1.86     1.90   0.38675  8.0456
 4.15000    1.86     1.90   0.38648  8.0465
 4.20000    1.86     1.90   0.38802  8.0450
 4.25000    1.86     1.90   0.38741  8.0442
 4.30000    1.86     1.90   0.38644  8.0447
 4.35000    1.86     1.90   0.38712  8.0442
 4.40000    1.87     1.90   0.38714  8.0439
 4.45000    1.87     1.90   0.38684  8.0437
 4.50000    1.87     1.90   0.38639  8.0435
 4.55000    1.87     1.90   0.38637  8.0435
 4.60000    1.87     1.90   0.38644  8.0438
 4.65000    1.87     1.90   0.38619  8.0435
 4.70000    1.87     1.90   0.38654  8.0436
 4.75000    1.87     1.90   0.38691  8.0432
 4.80000    1.87     1.90   0.38670  8.0431
 4.85000    1.87     1.90   0.38558  8.0432
 4.90000    1.87     1.90   0.38650  8.0430
 4.95000    1.87     1.91   0.38648  8.0433
 5.00000    1.87     1.91   0.38522  8.0433
 5.05000    1.87     1.91   0.38525  8.0430
 5.10000    1.87     1.91   0.38623  8.0425
 5.15000    1.87     1.91   0.38683  8.0428
 5.20000    1.87     1.91   0.38676  8.0435
 5.25000    1.87     1.91   0.38628  8.0430
 5.30000    1.87     1.91   0.38626  8.0424
 5.35000    1.87     1.91   0.38605  8.0428
 5.40000    1.87     1.91   0.38671  8.0428
 5.45000    1.87     1.91   0.38554  8.0439
 5.50000    1.87     1.91   0.38551  8.0430
 5.55000    1.87     1.91   0.38516  8.0428
 5.60000    1.87     1.91   0.38406  8.0427
 5.65000    1.87     1.91   0.38526  8.0428
 5.70000    1.87     1.91   0.38537  8.0429
 5.75000    1.87     1.91   0.38500  8.0433
 5.80000    1.87     1.91   0.38472  8.0433
 5.85000    1.87     1.91   0.38462  8.0429
 5.90000    1.87     1.91   0.38436  8.0426
 5.95000    1.88     1.92   0.38416  8.0432
 6.00000    1.88     1.92   0.38372  8.0427
 6.05000    1.88     1.92   0.38412  8.0431
 6.10000    1.88     1.92   0.38387  8.0429
 6.15000    1.88     1.92   0.38428  8.0428
 6.20000    1.88     1.92   0.38412  8.0425
 6.25000    1.88     1.92   0.38413  8.0423
 6.30000    1.88     1.92   0.38460  8.0425
 6.35000    1.88     1.92   0.38423  8.0424
 6.40000    1.88     1.92   0.38419  8.0427
 6.45000    1.88     1.92   0.38353  8.0424
 6.50000    1.88     1.92   0.38340  8.0424
 6.55000    1.88     1.92   0.38338  8.0427
 6.60000    1.88     1.92   0.38367  8.0428
 6.65000    1.88     1.92   0.38408  8.0430
 6.70000    1.88     1.92   0.38342  8.0431
 6.75000    1.88     1.92   0.38251  8.0428
 6.80000    1.88     1.92   0.38246  8.0430
 6.85000    1.88     1.92   0.38292  8.0429
 6.90000    1.88     1.92   0.38269  8.0433
 6.95000    1.88     1.92   0.38305  8.0436
 7.00000    1.88     1.92   0.38282  8.0434
 7.00000    1.88     1.92   0.38228  8.0436
 6.95000    1.88     1.93   0.38266  8.0433
 6.90000    1.88     1.93   0.38362  8.0435
 6.85000    1.88     1.93   0.38388  8.0444
 6.80000    1.88     1.93   0.38427  8.0443
 6.75000    1.88     1.93   0.38393  8.0442
 6.70000    1.88     1.93   0.38428  8.0439
 6.65000    1.88     1.93   0.38434  8.0440
 6.60000    1.88     1.93   0.38486  8.0436
 6.55000    1.88     1.93   0.38442  8.0444
 6.50000    1.88     1.93   0.38430  8.0439
 6.45000    1.88     1.92   0.38379  8.0438
 6.40000    1.88     1.92   0.38379  8.0443
 6.35000    1.88     1.92   0.38381  8.0442
 6.30000    1.88     1.92   0.38324  8.0436
 6.25000    1.88     1.92   0.38315  8.0441
 6.20000    1.88     1.92   0.38406  8.0443
 6.15000    1.88     1.92   0.38462  8.0444
 6.10000    1.88     1.92   0.38453  8.0443
 6.05000    1.88     1.92   0.38516  8.0444
 6.00000    1.88     1.92   0.38476  8.0444
 5.95000    1.88     1.92   0.38396  8.0457
 5.90000    1.88     1.92   0.38559  8.0446
 5.85000    1.88     1.92   0.38551  8.0455
 5.80000    1.88     1.92   0.38551  8.0455
 5.75000    1.88     1.92   0.38527  8.0452
 5.70000    1.88     1.92   0.38555  8.0456
 5.65000    1.88     1.92   0.38664  8.0457
 5.60000    1.88     1.92   0.38547  8.0451
 5.55000    1.88     1.92   0.38564  8.0459
 5.50000    1.88     1.92   0.38584  8.0453
 5.45000    1.88     1.92   0.38558  8.0452
 5.40000    1.88     1.92   0.38572  8.0454
 5.35000    1.88     1.92   0.38574  8.0456
 5.30000    1.88     1.92   0.38522  8.0459
 5.25000    1.88     1.92   0.38541  8.0464
 5.20000    1.88     1.92   0.38580  8.0464
 5.15000    1.88     1.92   0.38643  8.0464
 5.10000    1.88     1.92   0.38645  8.0465
 5.05000    1.88     1.92   0.38684  8.0468
 5.00000    1.88     1.92   0.38582  8.0462
 4.95000    1.88     1.92   0.38636  8.0464
 4.90000    1.88     1.92   0.38746  8.0466
 4.85000    1.88     1.91   0.38767  8.0470
 4.80000    1.88     1.91   0.38717  8.0468
 4.75000    1.88     1.91   0.38706  8.0475
 4.70000    1.88     1.91   0.38692  8.0478
 4.65000    1.88     1.91   0.38692  8.0477
 4.60000    1.88     1.91   0.38716  8.0474
 4.55000    1.88     1.91   0.38665  8.0483
 4.50000    1.88     1.91   0.38743  8.0477
 4.45000    1.88     1.91   0.38743  8.0482
 4.40000    1.87     1.91   0.38750  8.0474
 4.35000    1.87     1.91   0.38746  8.0487
 4.30000    1.87     1.91   0.38749  8.0488
 4.25000    1.87     1.91   0.38853  8.0484
 4.20000    1.87     1.91   0.38835  8.0489
 4.15000    1.87     1.91   0.38934  8.0494
 4.10000    1.87     1.91   0.38853  8.0494
 4.05000    1.87     1.91   0.38900  8.0501
 4.00000    1.87     1.91   0.38934  8.0494
 3.95000    1.87     1.91   0.38980  8.0499
 3.90000    1.87     1.91   0.38941  8.0503
 3.85000    1.87     1.91   0.38933  8.0502
 3.80000    1.87     1.91   0.38883  8.0504
 3.75000    1.87     1.91   0.38927  8.0502
 3.70000    1.87     1.91   0.38930  8.0511
 3.65000    1.87     1.91   0.38902  8.0514
 3.60000    1.87     1.91   0.38904  8.0506
 3.55000    1.87     1.90   0.38967  8.0515
 3.50000    1.87     1.90   0.39037  8.0513
 3.45000    1.87     1.90   0.39007  8.0518
 3.40000    1.87     1.90   0.38981  8.0519
 3.35000    1.87     1.90   0.39025  8.0518
 3.30000    1.87     1.90   0.39088  8.0518
 3.25000    1.87     1.90   0.39271  8.0512
 3.20000    1.87     1.90   0.39251  8.0521
 3.15000    1.87     1.90   0.39233  8.0514
 3.10000    1.87     1.90   0.39197  8.0516
 3.05000    1.87     1.90   0.39281  8.0519
 3.00000    1.87     1.90   0.39343  8.0519
 2.95000    1.87     1.90   0.39407  8.0512
 2.90000    1.87     1.90   0.39448  8.0511
 2.85000    1.87     1.90   0.39471  8.0508
 2.80000    1.87     1.90   0.39505  8.0508
 2.75000    1.87     1.90   0.39564  8.0504
 2.70000    1.87     1.90   0.39575  8.0508
 2.65000    1.87     1.90   0.39628  8.0509
 2.60000    1.87     1.90   0.39647  8.0499
 2.55000    1.87     1.90   0.39669  8.0501
 2.50000    1.87     1.89   0.39693  8.0497
 2.45000    1.87     1.89   0.39694  8.0498
 2.40000    1.87     1.89   0.39663  8.0490
 2.35000    1.87     1.89   0.39823  8.0488
 2.30000    1.87     1.89   0.39740  8.0484
 2.25000    1.87     1.89   0.39729  8.0490
 2.20000    1.87     1.89   0.39782  8.0479
 2.15000    1.87     1.89   0.39744  8.0479
 2.10000    1.87     1.89   0.39770  8.0476
 2.05000    1.87     1.89   0.39898  8.0476
 2.00000    1.87     1.89   0.39925  8.0470
 1.95000    1.87     1.89   0.39921  8.0473
 1.90000    1.87     1.89   0.39954  8.0471
 1.85000    1.87     1.89   0.40037  8.0467
 1.80000    1.87     1.89   0.39996  8.0469
 1.75000    1.87     1.89   0.40137  8.0470
 1.70000    1.87     1.89   0.40192  8.0467
 1.65000    1.87     1.89   0.40241  8.0456
 1.60000    1.86     1.89   0.40305  8.0453
 1.55000    1.86     1.89   0.40333  8.0452
 1.50000    1.86     1.89   0.40395  8.0442
 1.45000    1.86     1.89   0.40458  8.0430
 1.40000    1.86     1.88   0.40502  8.0415
 1.35000    1.86     1.88   0.40481  8.0403
 1.30000    1.86     1.88   0.40526  8.0381
 1.25000    1.86     1.88   0.40568  8.0363
 1.20000    1.86     1.88   0.40498  8.0341
 1.15000    1.86     1.88   0.40392  8.0325
 1.10000    1.86     1.88   0.40421  8.0314
 1.05000    1.86     1.88   0.40354  8.0306
 1.00000    1.86     1.88   0.40348  8.0294
 0.95000    1.86     1.88   0.40289  8.0288
 0.90000    1.86     1.88   0.40247  8.0279
 0.85000    1.86     1.88   0.40263  8.0281
 0.80000    1.86     1.88   0.40171  8.0277
 0.75000    1.86     1.88   0.40104  8.0283
 0.70000    1.86     1.88   0.40055  8.0279
 0.65000    1.86     1.88   0.39961  8.0281
 0.60000    1.86     1.88   0.39954  8.0280
 0.55000    1.86     1.88   0.39996  8.0279
 0.50000    1.86     1.88   0.39978  8.0278
 0.45000    1.86     1.88   0.39898  8.0273
 0.40000    1.86     1.88   0.39846  8.0274
 0.35000    1.86     1.88   0.39892  8.0284
 0.30000    1.86     1.88   0.39857  8.0293
 0.25000    1.86     1.88   0.39869  8.0287
 0.20000    1.86     1.88   0.39830  8.0286
 0.15000    1.86     1.88   0.39774  8.0286
 0.10000    1.86     1.88   0.39836  8.0284
 0.05000    1.86     1.88   0.39990  8.0280
-0.00000    1.86     1.88   0.39975  8.0281
