 Field[T] Tsmpl[K] Tcntr[K] Signal   Mirror[MM]
 0.00000    1.85     1.85   0.02141  -19.7565
 0.05000    1.85     1.85   0.02146  -19.7560
 0.10000    1.85     1.85   0.02150  -19.7555
 0.15000    1.85     1.85   0.02153  -19.7551
 0.20000    1.85     1.85   0.02155  -19.7545
 0.25000    1.85     1.85   0.02160  -19.7538
 0.30000    1.85     1.85   0.02162  -19.7535
 0.35000    1.85     1.85   0.02164  -19.7530
 0.40000    1.85     1.85   0.02167  -19.7524
 0.45000    1.85     1.85   0.02169  -19.7518
 0.50000    1.85     1.85   0.02170  -19.7514
 0.55000    1.85     1.85   0.02171  -19.7509
 0.60000    1.85     1.85   0.02171  -19.7505
 0.65000    1.85     1.85   0.02172  -19.7501
 0.70000    1.85     1.85   0.02172  -19.7496
 0.75000    1.85     1.85   0.02173  -19.7493
 0.80000    1.85     1.85   0.02174  -19.7491
 0.85000    1.85     1.85   0.02175  -19.7488
 0.90000    1.85     1.85   0.02174  -19.7485
 0.95000    1.85     1.85   0.02173  -19.7482
 1.00000    1.85     1.85   0.02174  -19.7482
 1.05000    1.85     1.85   0.02172  -19.7479
 1.10000    1.85     1.85   0.02174  -19.7477
 1.15000    1.85     1.85   0.02172  -19.7474
 1.20000    1.85     1.85   0.02173  -19.7472
 1.25000    1.85     1.85   0.02173  -19.7471
 1.30000    1.85     1.85   0.02174  -19.7469
 1.35000    1.85     1.85   0.02174  -19.7466
 1.40000    1.85     1.85   0.02178  -19.7465
 1.45000    1.85     1.85   0.02182  -19.7459
 1.50000    1.85     1.85   0.02181  -19.7454
 1.55000    1.85     1.85   0.02177  -19.7446
 1.60000    1.85     1.85   0.02170  -19.7443
 1.65000    1.85     1.85   0.02163  -19.7439
 1.70000    1.85     1.85   0.02156  -19.7438
 1.75000    1.85     1.85   0.02148  -19.7437
 1.80000    1.85     1.85   0.02141  -19.7437
 1.85000    1.85     1.85   0.02131  -19.7436
 1.90000    1.85     1.85   0.02126  -19.7437
 1.95000    1.85     1.85   0.02120  -19.7438
 2.00000    1.85     1.85   0.02115  -19.7439
 2.05000    1.85     1.85   0.02112  -19.7442
 2.10000    1.85     1.85   0.02110  -19.7445
 2.15000    1.85     1.85   0.02106  -19.7448
 2.20000    1.85     1.85   0.02106  -19.7450
 2.25000    1.85     1.85   0.02105  -19.7451
 2.30000    1.85     1.85   0.02103  -19.7453
 2.35000    1.85     1.85   0.02102  -19.7456
 2.40000    1.85     1.85   0.02102  -19.7457
 2.45000    1.85     1.85   0.02103  -19.7460
 2.50000    1.85     1.85   0.02104  -19.7463
 2.55000    1.85     1.85   0.02104  -19.7465
 2.60000    1.85     1.85   0.02105  -19.7466
 2.65000    1.85     1.85   0.02106  -19.7468
 2.70000    1.85     1.85   0.02106  -19.7469
 2.75000    1.85     1.85   0.02108  -19.7471
 2.80000    1.85     1.85   0.02109  -19.7473
 2.85000    1.85     1.85   0.02109  -19.7473
 2.90000    1.85     1.85   0.02111  -19.7473
 2.95000    1.85     1.85   0.02113  -19.7474
 3.00000    1.85     1.85   0.02116  -19.7477
 3.05000    1.85     1.85   0.02115  -19.7479
 3.10000    1.85     1.85   0.02118  -19.7479
 3.15000    1.85     1.85   0.02119  -19.7479
 3.20000    1.85     1.85   0.02122  -19.7478
 3.25000    1.85     1.85   0.02124  -19.7481
 3.30000    1.85     1.85   0.02125  -19.7480
 3.35000    1.85     1.85   0.02126  -19.7479
 3.40000    1.85     1.85   0.02129  -19.7477
 3.45000    1.85     1.85   0.02128  -19.7480
 3.50000    1.85     1.85   0.02132  -19.7482
 3.55000    1.85     1.85   0.02134  -19.7483
 3.60000    1.85     1.85   0.02136  -19.7484
 3.65000    1.85     1.85   0.02138  -19.7484
 3.70000    1.85     1.85   0.02138  -19.7483
 3.75000    1.85     1.85   0.02141  -19.7485
 3.80000    1.85     1.85   0.02142  -19.7484
 3.85000    1.85     1.85   0.02145  -19.7486
 3.90000    1.85     1.85   0.02146  -19.7486
 3.95000    1.85     1.85   0.02148  -19.7487
 4.00000    1.85     1.85   0.02149  -19.7486
 4.05000    1.85     1.85   0.02153  -19.7489
 4.10000    1.85     1.85   0.02153  -19.7491
 4.15000    1.85     1.85   0.02156  -19.7490
 4.20000    1.85     1.85   0.02157  -19.7493
 4.25000    1.85     1.85   0.02159  -19.7492
 4.30000    1.85     1.85   0.02161  -19.7492
 4.35000    1.85     1.85   0.02161  -19.7494
 4.40000    1.85     1.85   0.02163  -19.7494
 4.45000    1.85     1.85   0.02165  -19.7492
 4.50000    1.85     1.85   0.02166  -19.7492
 4.55000    1.85     1.85   0.02168  -19.7493
 4.60000    1.85     1.85   0.02170  -19.7494
 4.65000    1.85     1.85   0.02171  -19.7494
 4.70000    1.85     1.85   0.02172  -19.7493
 4.75000    1.85     1.85   0.02173  -19.7493
 4.80000    1.85     1.85   0.02175  -19.7494
 4.85000    1.85     1.85   0.02176  -19.7494
 4.90000    1.85     1.85   0.02178  -19.7494
 4.95000    1.85     1.85   0.02179  -19.7494
 5.00000    1.85     1.85   0.02181  -19.7494
 5.05000    1.85     1.85   0.02182  -19.7494
 5.10000    1.85     1.85   0.02183  -19.7494
 5.15000    1.85     1.85   0.02186  -19.7494
 5.20000    1.85     1.85   0.02187  -19.7493
 5.25000    1.85     1.85   0.02188  -19.7493
 5.30000    1.85     1.85   0.02190  -19.7494
 5.35000    1.85     1.85   0.02191  -19.7493
 5.40000    1.85     1.85   0.02191  -19.7493
 5.45000    1.85     1.85   0.02192  -19.7493
 5.50000    1.85     1.85   0.02194  -19.7493
 5.55000    1.85     1.85   0.02195  -19.7495
 5.60000    1.85     1.85   0.02195  -19.7495
 5.65000    1.85     1.85   0.02196  -19.7493
 5.70000    1.85     1.85   0.02198  -19.7496
 5.75000    1.85     1.85   0.02199  -19.7495
 5.80000    1.85     1.85   0.02199  -19.7495
 5.85000    1.85     1.85   0.02201  -19.7494
 5.90000    1.85     1.85   0.02202  -19.7493
 5.95000    1.85     1.85   0.02203  -19.7494
 6.00000    1.85     1.85   0.02204  -19.7494
 6.05000    1.85     1.85   0.02206  -19.7494
 6.10000    1.85     1.85   0.02207  -19.7495
 6.15000    1.85     1.85   0.02207  -19.7493
 6.20000    1.85     1.85   0.02207  -19.7494
 6.25000    1.85     1.85   0.02209  -19.7494
 6.30000    1.85     1.85   0.02210  -19.7494
 6.35000    1.85     1.85   0.02211  -19.7494
 6.40000    1.85     1.85   0.02213  -19.7495
 6.45000    1.85     1.85   0.02214  -19.7496
 6.50000    1.85     1.85   0.02215  -19.7495
 6.55000    1.85     1.85   0.02217  -19.7496
 6.60000    1.85     1.85   0.02218  -19.7495
 6.65000    1.85     1.85   0.02218  -19.7495
 6.70000    1.85     1.85   0.02219  -19.7495
 6.75000    1.85     1.85   0.02220  -19.7493
 6.80000    1.85     1.85   0.02222  -19.7496
 6.85000    1.85     1.85   0.02225  -19.7497
 6.90000    1.85     1.85   0.02224  -19.7497
 6.95000    1.85     1.85   0.02225  -19.7496
 7.00000    1.85     1.85   0.02226  -19.7498
