 Field[T] Tsmpl[K] Tcntr[K] Signal   Mirror[MM]
 0.00000    1.77     1.77   0.22218  -10.9565
 0.05000    1.77     1.77   0.22213  -10.9564
 0.10000    1.77     1.77   0.22203  -10.9561
 0.15000    1.77     1.77   0.22203  -10.9561
 0.20000    1.77     1.77   0.22197  -10.9558
 0.25000    1.77     1.77   0.22200  -10.9557
 0.30000    1.77     1.77   0.22196  -10.9556
 0.35000    1.77     1.77   0.22202  -10.9555
 0.40000    1.77     1.77   0.22191  -10.9556
 0.45000    1.77     1.77   0.22185  -10.9557
 0.50000    1.77     1.77   0.22176  -10.9556
 0.55000    1.77     1.77   0.22175  -10.9554
 0.60000    1.77     1.77   0.22176  -10.9558
 0.65000    1.77     1.77   0.22175  -10.9553
 0.70000    1.77     1.77   0.22148  -10.9555
 0.75000    1.77     1.77   0.22154  -10.9554
 0.80000    1.77     1.77   0.22145  -10.9555
 0.85000    1.77     1.77   0.22138  -10.9557
 0.90000    1.77     1.77   0.22113  -10.9551
 0.95000    1.77     1.77   0.22097  -10.9555
 1.00000    1.77     1.77   0.22073  -10.9555
 1.05000    1.77     1.77   0.22049  -10.9556
 1.10000    1.77     1.77   0.21997  -10.9557
 1.15000    1.77     1.77   0.21948  -10.9558
 1.20000    1.77     1.77   0.21868  -10.9558
 1.25000    1.77     1.77   0.21805  -10.9562
 1.30000    1.77     1.77   0.21754  -10.9566
 1.35000    1.77     1.77   0.21728  -10.9578
 1.40000    1.77     1.77   0.21732  -10.9585
 1.45000    1.77     1.77   0.21754  -10.9590
 1.50000    1.77     1.77   0.21831  -10.9598
 1.55000    1.77     1.77   0.21898  -10.9601
 1.60000    1.77     1.77   0.21983  -10.9604
 1.65000    1.77     1.77   0.22050  -10.9606
 1.70000    1.77     1.77   0.22116  -10.9610
 1.75000    1.77     1.77   0.22192  -10.9607
 1.80000    1.77     1.77   0.22238  -10.9607
 1.85000    1.77     1.77   0.22300  -10.9608
 1.90000    1.77     1.77   0.22324  -10.9604
 1.95000    1.77     1.77   0.22364  -10.9602
 2.00000    1.77     1.77   0.22382  -10.9601
 2.05000    1.77     1.77   0.22409  -10.9599
 2.10000    1.77     1.77   0.22411  -10.9598
 2.15000    1.77     1.77   0.22423  -10.9595
 2.20000    1.77     1.77   0.22425  -10.9592
 2.25000    1.77     1.77   0.22426  -10.9593
 2.30000    1.77     1.77   0.22435  -10.9592
 2.35000    1.77     1.77   0.22437  -10.9590
 2.40000    1.77     1.77   0.22436  -10.9587
 2.45000    1.77     1.77   0.22433  -10.9587
 2.50000    1.77     1.77   0.22438  -10.9584
 2.55000    1.77     1.77   0.22440  -10.9586
 2.60000    1.77     1.77   0.22432  -10.9584
 2.65000    1.77     1.77   0.22429  -10.9582
 2.70000    1.77     1.77   0.22418  -10.9583
 2.75000    1.77     1.77   0.22428  -10.9583
 2.80000    1.77     1.77   0.22428  -10.9581
 2.85000    1.77     1.77   0.22420  -10.9581
 2.90000    1.77     1.77   0.22404  -10.9579
 2.95000    1.77     1.77   0.22411  -10.9579
 3.00000    1.77     1.77   0.22406  -10.9579
 3.05000    1.77     1.77   0.22402  -10.9579
 3.10000    1.77     1.77   0.22401  -10.9578
 3.15000    1.77     1.77   0.22405  -10.9577
 3.20000    1.77     1.77   0.22397  -10.9577
 3.25000    1.77     1.77   0.22403  -10.9574
 3.30000    1.77     1.77   0.22390  -10.9574
 3.35000    1.77     1.77   0.22399  -10.9573
 3.40000    1.77     1.77   0.22376  -10.9573
 3.45000    1.77     1.77   0.22386  -10.9571
 3.50000    1.77     1.77   0.22372  -10.9571
 3.55000    1.77     1.77   0.22387  -10.9573
 3.60000    1.77     1.77   0.22381  -10.9572
 3.65000    1.77     1.77   0.22381  -10.9571
 3.70000    1.77     1.77   0.22375  -10.9572
 3.75000    1.77     1.77   0.22370  -10.9572
 3.80000    1.77     1.77   0.22376  -10.9568
 3.85000    1.77     1.77   0.22373  -10.9564
 3.90000    1.77     1.77   0.22374  -10.9563
 3.95000    1.77     1.77   0.22363  -10.9564
 4.00000    1.77     1.77   0.22374  -10.9561
 4.00000    1.77     1.77   0.22363  -10.9561
 3.95000    1.77     1.77   0.22361  -10.9564
 3.90000    1.77     1.77   0.22376  -10.9564
 3.85000    1.77     1.77   0.22370  -10.9565
 3.80000    1.77     1.77   0.22371  -10.9561
 3.75000    1.77     1.77   0.22376  -10.9563
 3.70000    1.77     1.77   0.22375  -10.9565
 3.65000    1.77     1.77   0.22376  -10.9566
 3.60000    1.77     1.77   0.22378  -10.9565
 3.55000    1.77     1.77   0.22394  -10.9563
 3.50000    1.77     1.77   0.22377  -10.9564
 3.45000    1.77     1.77   0.22383  -10.9565
 3.40000    1.77     1.77   0.22383  -10.9563
 3.35000    1.77     1.77   0.22376  -10.9563
 3.30000    1.77     1.77   0.22396  -10.9563
 3.25000    1.77     1.77   0.22403  -10.9565
 3.20000    1.77     1.77   0.22401  -10.9563
 3.15000    1.77     1.77   0.22398  -10.9565
 3.10000    1.77     1.77   0.22399  -10.9563
 3.05000    1.77     1.77   0.22407  -10.9565
 3.00000    1.77     1.77   0.22408  -10.9565
 2.95000    1.77     1.77   0.22411  -10.9565
 2.90000    1.77     1.77   0.22402  -10.9562
 2.85000    1.77     1.77   0.22400  -10.9562
 2.80000    1.77     1.77   0.22413  -10.9561
 2.75000    1.77     1.77   0.22415  -10.9560
 2.70000    1.77     1.77   0.22417  -10.9561
 2.65000    1.77     1.77   0.22404  -10.9563
 2.60000    1.77     1.77   0.22406  -10.9565
 2.55000    1.77     1.77   0.22413  -10.9563
 2.50000    1.77     1.77   0.22405  -10.9565
 2.45000    1.77     1.77   0.22429  -10.9564
 2.40000    1.77     1.77   0.22420  -10.9563
 2.35000    1.77     1.77   0.22413  -10.9566
 2.30000    1.77     1.77   0.22411  -10.9568
 2.25000    1.77     1.77   0.22392  -10.9565
 2.20000    1.77     1.77   0.22405  -10.9564
 2.15000    1.77     1.77   0.22383  -10.9568
 2.10000    1.77     1.77   0.22375  -10.9574
 2.05000    1.77     1.77   0.22367  -10.9573
 2.00000    1.77     1.77   0.22347  -10.9575
 1.95000    1.77     1.77   0.22330  -10.9578
 1.90000    1.77     1.77   0.22305  -10.9580
 1.85000    1.77     1.77   0.22273  -10.9582
 1.80000    1.77     1.77   0.22222  -10.9583
 1.75000    1.77     1.77   0.22157  -10.9586
 1.70000    1.77     1.77   0.22098  -10.9585
 1.65000    1.77     1.77   0.22023  -10.9585
 1.60000    1.77     1.77   0.21938  -10.9584
 1.55000    1.77     1.77   0.21855  -10.9581
 1.50000    1.77     1.77   0.21789  -10.9578
 1.45000    1.77     1.77   0.21728  -10.9571
 1.40000    1.77     1.77   0.21705  -10.9563
 1.35000    1.77     1.77   0.21694  -10.9551
 1.30000    1.77     1.77   0.21708  -10.9547
 1.25000    1.77     1.77   0.21764  -10.9543
 1.20000    1.77     1.77   0.21817  -10.9539
 1.15000    1.77     1.77   0.21878  -10.9535
 1.10000    1.77     1.77   0.21953  -10.9534
 1.05000    1.77     1.77   0.21994  -10.9535
 1.00000    1.77     1.77   0.22030  -10.9537
 0.95000    1.77     1.77   0.22067  -10.9536
 0.90000    1.77     1.77   0.22090  -10.9534
 0.85000    1.77     1.77   0.22102  -10.9536
 0.80000    1.77     1.77   0.22110  -10.9537
 0.75000    1.77     1.77   0.22132  -10.9536
 0.70000    1.77     1.77   0.22129  -10.9535
 0.65000    1.77     1.77   0.22160  -10.9538
 0.60000    1.77     1.77   0.22153  -10.9540
 0.55000    1.77     1.77   0.22167  -10.9537
 0.50000    1.77     1.77   0.22169  -10.9542
 0.45000    1.77     1.77   0.22187  -10.9539
 0.40000    1.77     1.77   0.22191  -10.9540
 0.35000    1.77     1.77   0.22198  -10.9541
 0.30000    1.77     1.77   0.22195  -10.9540
 0.25000    1.77     1.77   0.22196  -10.9543
 0.20000    1.77     1.77   0.22194  -10.9544
 0.15000    1.77     1.77   0.22205  -10.9547
 0.10000    1.77     1.77   0.22215  -10.9547
 0.05000    1.77     1.77   0.22215  -10.9549
 -0.00000    1.77     1.77   0.22222  -10.9548
