 Field[T] Tsmpl[K] Tcntr[K] Signal   Mirror[MM]
 0.00000    1.75     1.75   0.17096  -10.9370
 0.05000    1.75     1.75   0.17092  -10.9370
 0.10000    1.75     1.75   0.17088  -10.9369
 0.15000    1.75     1.75   0.17089  -10.9367
 0.20000    1.75     1.75   0.17080  -10.9364
 0.25000    1.75     1.75   0.17083  -10.9365
 0.30000    1.75     1.75   0.17075  -10.9365
 0.35000    1.75     1.75   0.17076  -10.9363
 0.40000    1.75     1.75   0.17079  -10.9355
 0.45000    1.75     1.75   0.17076  -10.9354
 0.50000    1.75     1.75   0.17073  -10.9361
 0.55000    1.75     1.75   0.17077  -10.9359
 0.60000    1.75     1.75   0.17077  -10.9357
 0.65000    1.75     1.75   0.17081  -10.9362
 0.70000    1.75     1.75   0.17076  -10.9365
 0.75000    1.75     1.75   0.17069  -10.9366
 0.80000    1.75     1.75   0.17076  -10.9360
 0.85000    1.75     1.75   0.17067  -10.9365
 0.90000    1.75     1.75   0.17055  -10.9362
 0.95000    1.75     1.75   0.17060  -10.9363
 1.00000    1.75     1.75   0.17047  -10.9361
 1.05000    1.75     1.75   0.17035  -10.9363
 1.10000    1.75     1.75   0.17027  -10.9362
 1.15000    1.75     1.75   0.17016  -10.9358
 1.20000    1.75     1.75   0.16997  -10.9358
 1.25000    1.75     1.75   0.16981  -10.9358
 1.30000    1.75     1.75   0.16940  -10.9355
 1.35000    1.75     1.75   0.16898  -10.9356
 1.40000    1.75     1.75   0.16852  -10.9359
 1.45000    1.75     1.75   0.16804  -10.9360
 1.50000    1.75     1.75   0.16765  -10.9363
 1.55000    1.75     1.75   0.16737  -10.9369
 1.60000    1.75     1.75   0.16717  -10.9376
 1.65000    1.75     1.75   0.16721  -10.9381
 1.70000    1.75     1.75   0.16734  -10.9383
 1.75000    1.75     1.75   0.16759  -10.9389
 1.80000    1.75     1.75   0.16797  -10.9390
 1.85000    1.75     1.75   0.16831  -10.9392
 1.90000    1.75     1.75   0.16864  -10.9394
 1.95000    1.75     1.75   0.16899  -10.9395
 2.00000    1.75     1.75   0.16920  -10.9395
 2.05000    1.75     1.75   0.16948  -10.9396
 2.10000    1.75     1.75   0.16970  -10.9396
 2.15000    1.75     1.75   0.16990  -10.9394
 2.20000    1.75     1.75   0.17008  -10.9395
 2.25000    1.75     1.75   0.17017  -10.9393
 2.30000    1.75     1.75   0.17034  -10.9392
 2.35000    1.75     1.75   0.17032  -10.9392
 2.40000    1.75     1.75   0.17047  -10.9389
 2.45000    1.75     1.75   0.17049  -10.9387
 2.50000    1.75     1.75   0.17058  -10.9390
 2.55000    1.75     1.75   0.17052  -10.9390
 2.60000    1.75     1.75   0.17058  -10.9390
 2.65000    1.75     1.75   0.17057  -10.9389
 2.70000    1.75     1.75   0.17061  -10.9390
 2.75000    1.75     1.75   0.17062  -10.9388
 2.80000    1.75     1.75   0.17068  -10.9390
 2.85000    1.75     1.75   0.17068  -10.9387
 2.90000    1.75     1.75   0.17066  -10.9385
 2.95000    1.75     1.75   0.17072  -10.9385
 3.00000    1.75     1.75   0.17072  -10.9386
 3.05000    1.75     1.75   0.17071  -10.9389
 3.10000    1.75     1.75   0.17076  -10.9387
 3.15000    1.75     1.75   0.17084  -10.9383
 3.20000    1.75     1.75   0.17076  -10.9382
 3.25000    1.75     1.75   0.17078  -10.9381
 3.30000    1.75     1.75   0.17080  -10.9383
 3.35000    1.75     1.75   0.17076  -10.9385
 3.40000    1.75     1.75   0.17078  -10.9380
 3.45000    1.75     1.75   0.17077  -10.9383
 3.50000    1.75     1.75   0.17077  -10.9382
 3.55000    1.75     1.75   0.17072  -10.9381
 3.60000    1.75     1.75   0.17075  -10.9380
 3.65000    1.75     1.75   0.17074  -10.9380
 3.70000    1.75     1.75   0.17070  -10.9381
 3.75000    1.75     1.75   0.17070  -10.9383
 3.80000    1.75     1.75   0.17071  -10.9382
 3.85000    1.75     1.75   0.17068  -10.9381
 3.90000    1.75     1.75   0.17071  -10.9378
 3.95000    1.75     1.75   0.17068  -10.9380
 4.00000    1.75     1.75   0.17070  -10.9382
 4.00000    1.75     1.75   0.17071  -10.9380
 3.95000    1.75     1.75   0.17074  -10.9379
 3.90000    1.75     1.75   0.17071  -10.9382
 3.85000    1.75     1.75   0.17073  -10.9381
 3.80000    1.75     1.75   0.17067  -10.9383
 3.75000    1.75     1.75   0.17064  -10.9379
 3.70000    1.75     1.75   0.17065  -10.9379
 3.65000    1.75     1.75   0.17067  -10.9380
 3.60000    1.75     1.75   0.17062  -10.9380
 3.55000    1.75     1.75   0.17063  -10.9384
 3.50000    1.75     1.75   0.17061  -10.9381
 3.45000    1.75     1.75   0.17062  -10.9382
 3.40000    1.75     1.75   0.17057  -10.9379
 3.35000    1.75     1.75   0.17057  -10.9380
 3.30000    1.75     1.75   0.17055  -10.9379
 3.25000    1.75     1.75   0.17050  -10.9378
 3.20000    1.75     1.75   0.17054  -10.9380
 3.15000    1.75     1.75   0.17054  -10.9381
 3.10000    1.75     1.75   0.17057  -10.9382
 3.05000    1.75     1.75   0.17048  -10.9380
 3.00000    1.75     1.75   0.17049  -10.9380
 2.95000    1.75     1.75   0.17046  -10.9381
 2.90000    1.75     1.75   0.17045  -10.9381
 2.85000    1.75     1.75   0.17040  -10.9379
 2.80000    1.75     1.75   0.17038  -10.9381
 2.75000    1.75     1.75   0.17038  -10.9383
 2.70000    1.75     1.75   0.17036  -10.9379
 2.65000    1.75     1.75   0.17039  -10.9381
 2.60000    1.75     1.75   0.17031  -10.9382
 2.55000    1.75     1.75   0.17029  -10.9384
 2.50000    1.75     1.75   0.17024  -10.9381
 2.45000    1.75     1.75   0.17018  -10.9381
 2.40000    1.75     1.75   0.16999  -10.9381
 2.35000    1.75     1.75   0.17000  -10.9384
 2.30000    1.75     1.75   0.16994  -10.9385
 2.25000    1.75     1.75   0.16984  -10.9384
 2.20000    1.75     1.75   0.16967  -10.9382
 2.15000    1.75     1.75   0.16959  -10.9383
 2.10000    1.75     1.75   0.16934  -10.9384
 2.05000    1.75     1.75   0.16915  -10.9386
 2.00000    1.75     1.75   0.16887  -10.9384
 1.95000    1.75     1.75   0.16860  -10.9385
 1.90000    1.75     1.75   0.16827  -10.9385
 1.85000    1.75     1.75   0.16790  -10.9383
 1.80000    1.75     1.75   0.16756  -10.9379
 1.75000    1.75     1.75   0.16733  -10.9382
