 Field[T] Tsmpl[K] Tcntr[K] Signal Mirror[MM]
 0.00000    5.01     2.91   1.16770  2.9054
 0.05000    4.99     2.92   1.16769  2.9053
 0.10000    4.98     2.90   1.16765  2.9052
 0.15000    4.96     2.91   1.16814  2.9052
 0.20000    4.95     2.92   1.16910  2.9051
 0.25000    4.94     2.92   1.16932  2.9055
 0.30000    4.93     2.91   1.16960  2.9055
 0.35000    4.91     2.93   1.16975  2.9052
 0.40000    4.91     2.92   1.16998  2.9051
 0.45000    4.90     2.93   1.17050  2.9051
 0.50000    4.89     2.93   1.17045  2.9051
 0.55000    4.89     2.92   1.17047  2.9050
 0.60000    4.88     2.92   1.17119  2.9050
 0.65000    4.87     2.94   1.17130  2.9048
 0.70000    4.86     2.93   1.17129  2.9048
 0.75000    4.85     2.93   1.17069  2.9048
 0.80000    4.84     2.93   1.17108  2.9048
 0.85000    4.84     2.95   1.17133  2.9046
 0.90000    4.83     2.94   1.17103  2.9046
 0.95000    4.82     2.94   1.17074  2.9044
 1.00000    4.81     2.94   1.16984  2.9045
 1.05000    4.81     2.94   1.17006  2.9045
 1.10000    4.80     2.94   1.17179  2.9039
 1.15000    4.80     2.95   1.17254  2.9036
 1.20000    4.80     2.96   1.17454  2.9034
 1.25000    4.80     2.94   1.17601  2.9032
 1.30000    4.79     2.95   1.17747  2.9030
 1.35000    4.78     2.94   1.17904  2.9029
 1.40000    4.78     2.95   1.17952  2.9029
 1.45000    4.78     2.95   1.18047  2.9028
 1.50000    4.78     2.95   1.18154  2.9028
 1.55000    4.79     2.97   1.18226  2.9027
 1.60000    4.80     2.96   1.18291  2.9028
 1.65000    4.80     2.96   1.18428  2.9026
 1.70000    4.81     2.96   1.18502  2.9026
 1.75000    4.83     2.97   1.18573  2.9024
 1.80000    4.83     2.96   1.18672  2.9024
 1.85000    4.83     2.95   1.18765  2.9024
 1.90000    4.83     2.97   1.18893  2.9023
 1.95000    4.83     2.97   1.18972  2.9022
 2.00000    4.83     2.97   1.19047  2.9020
 2.05000    4.83     2.99   1.19122  2.9020
 2.10000    4.84     2.98   1.19216  2.9020
 2.15000    4.85     2.98   1.19286  2.9021
 2.20000    4.86     2.96   1.19264  2.9021
 2.25000    4.86     2.97   1.19459  2.9020
 2.30000    4.85     2.95   1.19475  2.9019
 2.35000    4.83     2.95   1.19572  2.9021
 2.40000    4.81     2.94   1.19633  2.9019
 2.45000    4.79     2.94   1.19654  2.9020
 2.50000    4.77     2.95   1.19744  2.9018
 2.55000    4.76     2.94   1.19857  2.9018
 2.60000    4.76     2.96   1.19811  2.9019
 2.65000    4.76     2.96   1.20007  2.9018
 2.70000    4.76     2.97   1.20081  2.9017
 2.75000    4.76     2.98   1.20127  2.9017
 2.80000    4.77     2.97   1.20240  2.9016
 2.85000    4.76     2.98   1.20306  2.9015
 2.90000    4.76     2.97   1.20391  2.9017
 2.95000    4.75     2.99   1.20424  2.9016
 3.00000  415.00     2.98   1.20506  2.9016
