 Field[T] Tsmpl[K] Tcntr[K] Signal   Mirror[MM]
 0.00000    5.29     2.97   1.49619  3.5206
 0.05000    5.30     2.98   1.49666  3.5203
 0.10000    5.31     2.98   1.49638  3.5217
 0.15000    5.32     2.98   1.49581  3.5216
 0.20000    5.33     2.97   1.49527  3.5216
 0.25000    5.34     2.99   1.49478  3.5216
 0.30000    5.35     2.99   1.49259  3.5216
 0.35000    5.36     2.98   1.49189  3.5217
 0.40000    5.36     2.98   1.49023  3.5216
 0.45000    5.36     2.99   1.48838  3.5217
 0.50000    5.36     2.98   1.48596  3.5219
 0.55000    5.35     3.00   1.48309  3.5217
 0.60000    5.36     2.98   1.48160  3.5218
 0.65000    5.35     2.98   1.47488  3.5221
 0.70000    5.35     3.00   1.46820  3.5222
 0.75000    5.36     2.97   1.45992  3.5218
 0.80000    5.36     2.98   1.45082  3.5213
 0.85000    5.35     2.97   1.43795  3.5201
 0.90000    5.34     2.95   1.42748  3.5175
 0.95000    5.34     2.96   1.42712  3.5143
 1.00000    5.32     2.95   1.43484  3.5113
 1.05000    5.32     2.96   1.44709  3.5095
 1.10000    5.31     2.95   1.45990  3.5084
 1.15000    5.30     2.94   1.47111  3.5079
 1.20000    5.30     2.94   1.48084  3.5079
 1.25000    5.30     2.94   1.48860  3.5082
 1.30000    5.30     2.95   1.49545  3.5085
 1.35000    5.31     2.96   1.49998  3.5090
 1.40000    5.31     2.94   1.50421  3.5092
 1.45000    5.31     2.95   1.50653  3.5095
 1.50000    5.30     2.95   1.50913  3.5097
 1.55000    5.29     2.97   1.51134  3.5101
 1.60000    5.28     2.96   1.51236  3.5102
 1.65000    5.27     2.96   1.51425  3.5105
 1.70000    5.26     2.96   1.51670  3.5107
 1.75000    5.26     2.99   1.51868  3.5110
 1.80000    5.26     2.97   1.51841  3.5111
 1.85000    5.26     2.97   1.51989  3.5115
 1.90000    5.27     2.97   1.52212  3.5115
 1.95000    5.28     2.99   1.52271  3.5118
 2.00000    5.28     2.97   1.52340  3.5119
 2.05000    5.29     2.98   1.52391  3.5122
 2.10000    5.29     2.99   1.52488  3.5123
 2.15000    5.30     2.98   1.52389  3.5125
 2.20000    5.29     2.98   1.52424  3.5127
 2.25000    5.29     2.98   1.52531  3.5128
 2.30000    5.28     2.99   1.52538  3.5131
 2.35000    5.29     3.01   1.52623  3.5130
 2.40000    5.29     2.99   1.52664  3.5131
 2.45000    5.28     2.99   1.52604  3.5131
 2.50000    5.29     3.00   1.52690  3.5132
 2.55000    5.29     2.99   1.52702  3.5134
 2.60000    5.30     3.00   1.52690  3.5135
 2.65000    5.32     3.02   1.52805  3.5137
 2.70000    5.32     3.00   1.52801  3.5137
 2.75000    5.32     3.00   1.52669  3.5138
 2.80000    5.32     2.99   1.52709  3.5138
 2.85000    5.32     3.02   1.52769  3.5141
 2.90000    5.32     3.00   1.52717  3.5140
 2.95000    5.33     3.00   1.52705  3.5141
 3.00000    5.34     3.00   1.52816  3.5141
 3.05000    5.36     3.00   1.52894  3.5142
 3.10000    5.37     3.01   1.52821  3.5144
 3.15000    5.38     3.00   1.52920  3.5143
 3.20000    5.38     2.99   1.52970  3.5143
 3.25000    5.39     3.01   1.52981  3.5143
 3.30000    5.39     3.01   1.52886  3.5143
 3.35000    5.38     3.00   1.52901  3.5145
 3.40000    5.38     3.02   1.52933  3.5145
 3.45000    5.38     3.00   1.52924  3.5145
 3.50000    5.38     3.01   1.52909  3.5146
 3.55000    5.37     3.01   1.52877  3.5148
 3.60000    5.37     3.01   1.52905  3.5148
 3.65000    5.36     3.01   1.52944  3.5147
 3.70000    5.36     3.01   1.52941  3.5147
 3.75000    5.36     3.01   1.52968  3.5146
 3.80000    5.37     3.01   1.52965  3.5146
 3.85000    5.38     3.00   1.52945  3.5147
 3.90000    5.38     3.00   1.53010  3.5146
 3.95000    5.39     3.02   1.53078  3.5147
 4.00000    5.39     3.01   1.53000  3.5147
 4.05000    5.39     3.01   1.53056  3.5149
 4.10000    5.38     3.00   1.53000  3.5149
 4.15000    5.38     3.00   1.52954  3.5149
 4.20000    5.37     3.01   1.53026  3.5150
 4.25000    5.37     3.01   1.52987  3.5150
 4.30000    5.38     3.00   1.52989  3.5152
 4.35000    5.38     3.00   1.53006  3.5151
 4.40000    5.38     3.01   1.52992  3.5153
 4.45000    5.38     3.00   1.52956  3.5152
 4.50000    5.38     3.02   1.52967  3.5151
 4.55000    5.38     3.00   1.52984  3.5148
 4.60000    5.37     3.00   1.52955  3.5149
 4.65000    5.37     3.00   1.52969  3.5152
 4.70000    5.37     3.01   1.53033  3.5151
 4.75000    5.37     3.00   1.52942  3.5151
 4.80000    5.37     3.00   1.52982  3.5152
 4.85000    5.37     3.01   1.52994  3.5154
 4.90000    5.37     3.00   1.52959  3.5153
 4.95000    5.37     3.01   1.53022  3.5153
 5.00000    5.38     3.02   1.52925  3.5154
 5.05000    5.38     3.01   1.52901  3.5155
 5.10000    5.39     3.01   1.52970  3.5156
 5.15000    5.40     3.01   1.53009  3.5156
 5.20000    5.41     3.01   1.52988  3.5158
 5.25000    5.42     3.01   1.53050  3.5157
 5.30000    5.43     3.01   1.53119  3.5159
 5.35000    5.45     3.02   1.53115  3.5160
 5.40000    5.46     3.01   1.53181  3.5158
 5.45000    5.47     3.01   1.53181  3.5159
 5.50000    5.48     3.01   1.53229  3.5160
 5.55000    5.48     3.01   1.53287  3.5161
 5.60000    5.49     3.00   1.53278  3.5160
 5.65000    5.51     3.00   1.53211  3.5161
 5.70000    5.52     3.01   1.53270  3.5161
 5.75000    5.53     3.01   1.53249  3.5163
 5.80000    5.55     3.00   1.53280  3.5163
 5.85000    5.56     3.01   1.53385  3.5162
 5.90000    5.57     3.01   1.53266  3.5163
 5.95000    5.58     3.01   1.53321  3.5163
 6.00000    5.58     3.00   1.53388  3.5161
 6.05000    5.58     3.01   1.53342  3.5162
 6.10000    5.59     3.00   1.53408  3.5163
 6.15000    5.59     3.01   1.53349  3.5164
 6.20000    5.59     3.01   1.53379  3.5164
 6.25000    5.59     3.01   1.53313  3.5165
 6.30000    5.60     3.00   1.53418  3.5163
 6.35000    5.60     3.00   1.53325  3.5164
 6.40000    5.59     3.00   1.53326  3.5163
 6.45000    5.59     3.00   1.53295  3.5164
 6.50000    5.58     3.02   1.53328  3.5166
 6.55000    5.58     3.00   1.53357  3.5165
 6.60000    5.58     3.00   1.53319  3.5164
 6.65000    5.59     3.00   1.53368  3.5166
 6.70000    5.59     2.99   1.53383  3.5166
 6.75000    5.60     2.99   1.53421  3.5168
 6.80000    5.61     3.01   1.53369  3.5169
 6.85000    5.62     2.99   1.53457  3.5168
 6.90000    5.63     3.00   1.53422  3.5168
 6.95000    5.64     3.00   1.53395  3.5168
 7.00000    5.65     3.00   1.53437  3.5168
 7.00000    5.65     3.00   1.53379  3.5170
 6.95000    5.64     3.01   1.53410  3.5169
 6.90000    5.63     3.00   1.53363  3.5168
 6.85000    5.62     3.00   1.53439  3.5166
 6.80000    5.61     3.01   1.53431  3.5164
 6.75000    5.60     3.00   1.53405  3.5163
 6.70000    5.60     3.02   1.53389  3.5164
 6.65000    5.60     3.02   1.53432  3.5163
 6.60000    5.61     3.02   1.53458  3.5163
 6.55000    5.60     3.01   1.53439  3.5161
 6.50000    5.60     3.01   1.53404  3.5161
 6.45000    5.60     3.01   1.53457  3.5161
 6.40000    5.59     3.01   1.53394  3.5160
 6.35000    5.59     3.01   1.53490  3.5159
 6.30000    5.58     3.01   1.53484  3.5158
 6.25000    5.58     3.02   1.53490  3.5158
 6.20000    5.59     3.00   1.53413  3.5158
 6.15000    5.59     3.01   1.53387  3.5157
 6.10000    5.59     2.99   1.53469  3.5155
 6.05000    5.59     3.02   1.53592  3.5157
 6.00000    5.60     3.00   1.53683  3.5155
 5.95000    5.60     3.00   1.53678  3.5156
 5.90000    5.61     3.01   1.53751  3.5155
 5.85000    5.61     3.00   1.53641  3.5154
 5.80000    5.61     3.02   1.53717  3.5153
 5.75000    5.62     3.00   1.53814  3.5151
 5.70000    5.62     3.01   1.53673  3.5151
 5.65000    5.63     3.03   1.53724  3.5152
 5.60000    5.64     3.02   1.53757  3.5152
 5.55000    5.65     3.02   1.53800  3.5151
 5.50000    5.65     3.01   1.53797  3.5148
 5.45000    5.65     3.01   1.53829  3.5147
 5.40000    5.64     3.01   1.53838  3.5146
 5.35000    5.62     3.02   1.53759  3.5146
 5.30000    5.61     3.01   1.53790  3.5145
 5.25000    5.60     3.01   1.53746  3.5150
 5.20000    5.60     3.01   1.53750  3.5147
 5.15000    5.60     3.00   1.53723  3.5143
 5.10000    5.59     3.00   1.53831  3.5144
 5.05000    5.60     3.00   1.53887  3.5143
 5.00000    5.61     3.02   1.53959  3.5140
 4.95000    5.62     3.00   1.53861  3.5142
 4.90000    5.63     3.01   1.53874  3.5142
 4.85000    5.63     3.00   1.53822  3.5142
 4.80000    5.63     3.00   1.53927  3.5141
 4.75000    5.62     3.01   1.53860  3.5139
 4.70000    5.62     3.00   1.53876  3.5137
 4.65000    5.61     3.00   1.53852  3.5137
 4.60000    5.61     3.01   1.53928  3.5135
 4.55000    5.61     3.01   1.53968  3.5133
 4.50000    5.61     3.00   1.53856  3.5133
 4.45000    5.61     3.02   1.53915  3.5133
 4.40000    5.61     3.00   1.53954  3.5134
 4.35000    5.61     3.00   1.53894  3.5134
 4.30000    5.61     3.01   1.53871  3.5135
 4.25000    5.63     3.00   1.53994  3.5132
 4.20000    5.64     3.00   1.53982  3.5133
 4.15000    5.64     3.00   1.54113  3.5134
 4.10000    5.65     3.00   1.53948  3.5135
 4.05000    5.65     3.01   1.54007  3.5133
 4.00000    5.65     2.99   1.54015  3.5133
 3.95000    5.65     3.01   1.54087  3.5132
 3.90000    5.65     3.00   1.54104  3.5132
 3.85000    5.65     3.00   1.54109  3.5130
 3.80000    5.65     2.99   1.54029  3.5130
 3.75000    5.65     3.01   1.53925  3.5129
 3.70000    5.64     3.00   1.54016  3.5128
 3.65000    5.64     3.00   1.53988  3.5127
 3.60000    5.64     3.02   1.54048  3.5128
 3.55000    5.64     3.00   1.53998  3.5130
 3.50000    5.65     3.00   1.54025  3.5130
 3.45000    5.66     3.00   1.54003  3.5128
 3.40000    5.66     2.99   1.54157  3.5125
 3.35000    5.66     3.02   1.54199  3.5124
 3.30000    5.67     2.99   1.54147  3.5124
 3.25000    5.67     3.00   1.54193  3.5124
 3.20000    5.67     3.00   1.54040  3.5126
 3.15000    5.68     3.00   1.54133  3.5125
 3.10000    5.68     3.01   1.54164  3.5123
 3.05000    5.69     3.01   1.54256  3.5124
 3.00000    5.70     2.99   1.54234  3.5124
 2.95000    5.70     3.00   1.54324  3.5122
 2.90000    5.70     3.00   1.54246  3.5123
 2.85000    5.70     3.00   1.54318  3.5124
 2.80000    5.71     3.01   1.54365  3.5123
 2.75000    5.71     3.01   1.54321  3.5123
 2.70000    5.72     3.00   1.54331  3.5121
 2.65000    5.72     3.00   1.54398  3.5120
 2.60000    5.72     3.00   1.54300  3.5119
 2.55000    5.72     3.00   1.54346  3.5121
 2.50000    5.73     3.02   1.54407  3.5119
 2.45000    5.74     3.00   1.54470  3.5115
 2.40000    5.75     3.00   1.54431  3.5116
 2.35000    5.75     2.99   1.54457  3.5116
 2.30000    5.76     3.01   1.54426  3.5115
 2.25000    5.76     3.00   1.54457  3.5114
 2.20000    5.77     3.01   1.54463  3.5113
 2.15000    5.77     3.00   1.54444  3.5111
 2.10000    5.77     3.00   1.54376  3.5111
 2.05000    5.78     3.02   1.54301  3.5111
 2.00000    5.79     3.00   1.54352  3.5109
 1.95000    5.79     3.00   1.54262  3.5109
 1.90000    5.80     3.00   1.54252  3.5108
 1.85000    5.81     3.00   1.54213  3.5105
 1.80000    5.83     3.01   1.54297  3.5105
 1.75000    5.84     3.00   1.54077  3.5102
 1.70000    5.86     3.00   1.54055  3.5099
 1.65000    5.88     3.01   1.53916  3.5095
 1.60000    5.89     3.00   1.53705  3.5095
 1.55000    5.90     3.00   1.53579  3.5091
 1.50000    5.91     3.00   1.53341  3.5091
 1.45000    5.91     3.01   1.53099  3.5089
 1.40000    5.92     3.00   1.52919  3.5087
 1.35000    5.92     3.00   1.52661  3.5084
 1.30000    5.92     3.00   1.52055  3.5081
 1.25000    5.92     3.00   1.51558  3.5077
 1.20000    5.92     3.01   1.50878  3.5074
 1.15000    5.92     3.00   1.49933  3.5074
 1.10000    5.92     3.00   1.48895  3.5078
 1.05000    5.92     2.99   1.47627  3.5085
 1.00000    5.92     3.00   1.46434  3.5102
 0.95000    5.93     3.01   1.45575  3.5131
 0.90000    5.93     3.00   1.45659  3.5163
 0.85000    5.94     3.00   1.46570  3.5187
 0.80000    5.94     3.00   1.47801  3.5199
 0.75000    5.95     3.01   1.48762  3.5204
 0.70000    5.95     3.01   1.49612  3.5204
 0.65000    5.95     3.00   1.50266  3.5205
 0.60000    5.95     3.00   1.50789  3.5205
 0.55000    5.95     3.02   1.51240  3.5203
 0.50000    5.96     2.99   1.51562  3.5202
 0.45000    5.95     3.00   1.51749  3.5200
 0.40000    5.95     2.99   1.52186  3.5197
 0.35000    5.95     3.00   1.52308  3.5195
 0.30000    5.95     3.01   1.52475  3.5195
 0.25000    5.95     3.00   1.52652  3.5195
 0.20000    5.94     3.00   1.52792  3.5194
 0.15000    5.93     2.99   1.52916  3.5193
 0.10000    5.91     2.99   1.52957  3.5192
 0.05000    5.91     2.99   1.52978  3.5191
-0.00000    5.90     2.99   1.52939  3.5193
