 Field[T] Tsmpl[K] Tcntr[K] Signal   Mirror[MM]
 0.00000    5.37     2.99   0.77394  3.5709
 0.05000    5.37     3.00   0.76662  3.5704
 0.10000    5.38     2.97   0.76345  3.5700
 0.15000    5.37     2.98   0.75890  3.5695
 0.20000    5.37     2.99   0.75165  3.5692
 0.25000    5.37     2.99   0.74725  3.5688
 0.30000    5.37     2.99   0.73729  3.5686
 0.35000    5.37     2.99   0.73129  3.5684
 0.40000    5.37     2.99   0.73012  3.5682
 0.45000    5.37     2.99   0.72384  3.5683
 0.50000    5.38     2.99   0.71528  3.5680
 0.55000    5.38     2.99   0.71128  3.5683
 0.60000    5.38     2.99   0.70978  3.5683
 0.65000    5.38     2.98   0.70300  3.5685
 0.70000    5.38     2.99   0.70852  3.5685
 0.75000    5.38     2.99   0.69071  3.5684
 0.80000    5.38     2.97   0.68811  3.5688
 0.85000    5.37     2.97   0.68187  3.5689
 0.90000    5.37     2.97   0.67648  3.5694
 0.95000    5.36     2.96   0.67365  3.5702
 1.00000    5.35     2.95   0.66223  3.5708
 1.05000    5.35     2.98   0.65580  3.5707
 1.10000    5.34     2.96   0.65108  3.5707
 1.15000    5.33     2.96   0.64900  3.5710
 1.20000    5.32     2.95   0.64394  3.5716
 1.25000    5.30     2.95   0.64207  3.5722
 1.30000    5.28     2.98   0.63819  3.5725
 1.35000    5.28     2.96   0.63437  3.5728
 1.40000    5.26     2.96   0.62826  3.5728
 1.45000    5.25     2.96   0.62106  3.5733
 1.50000    5.24     2.95   0.61297  3.5737
 1.55000    5.23     2.96   0.60336  3.5736
 1.60000    5.23     2.97   0.59060  3.5727
 1.65000    5.23     2.97   0.58079  3.5707
 1.70000    5.23     2.97   0.57887  3.5673
 1.75000    5.24     2.99   0.58429  3.5639
 1.80000    5.25     2.97   0.58986  3.5626
 1.85000    5.25     2.98   0.59421  3.5619
 1.90000    5.27     2.97   0.59992  3.5611
 1.95000    5.28     2.97   0.60285  3.5611
 2.00000    5.29     2.99   0.60567  3.5609
 2.05000    5.30     2.98   0.60442  3.5616
 2.10000    5.30     2.99   0.60677  3.5614
 2.15000    5.30     2.98   0.60969  3.5616
 2.20000    5.30     2.99   0.60988  3.5619
 2.25000    5.30     3.00   0.61000  3.5622
 2.30000    5.30     2.99   0.60941  3.5629
 2.35000    5.30     3.00   0.60991  3.5631
 2.40000    5.30     2.99   0.60915  3.5636
 2.45000    5.29     2.99   0.60851  3.5639
 2.50000    5.27     2.99   0.60784  3.5644
 2.55000    5.25     2.99   0.60757  3.5645
 2.60000    5.23     2.99   0.60637  3.5647
 2.65000    5.22     3.00   0.60386  3.5652
 2.70000    5.22     3.02   0.60436  3.5653
 2.75000    5.23     3.00   0.60084  3.5657
 2.80000    5.23     3.00   0.59979  3.5659
 2.85000    5.24     3.01   0.59995  3.5658
 2.90000    5.25     3.00   0.59909  3.5662
 2.95000    5.26     3.01   0.59966  3.5664
 3.00000    5.27     3.01   0.60023  3.5665
 3.00000    5.27     3.00   0.60029  3.5665
 2.95000    5.28     3.00   0.59808  3.5672
 2.90000    5.30     3.02   0.59624  3.5669
 2.85000    5.32     3.02   0.59658  3.5670
 2.80000    5.34     3.02   0.59484  3.5671
 2.75000    5.36     3.02   0.59417  3.5674
 2.70000    5.38     3.02   0.59399  3.5676
 2.65000    5.40     3.03   0.59276  3.5677
 2.60000    5.41     3.02   0.59295  3.5679
 2.55000    5.43     3.04   0.59309  3.5681
 2.50000    5.44     3.02   0.59050  3.5682
 2.45000    5.44     3.02   0.58979  3.5684
 2.40000    5.45     3.04   0.59100  3.5680
 2.35000    5.46     3.02   0.59072  3.5679
 2.30000    5.46     3.02   0.58977  3.5677
 2.25000    5.47     3.03   0.58901  3.5679
 2.20000    5.48     3.02   0.58709  3.5674
 2.15000    5.49     3.04   0.58619  3.5675
 2.10000    5.51     3.02   0.58429  3.5674
 2.05000    5.51     3.02   0.58024  3.5678
 2.00000    5.51     3.03   0.57826  3.5673
 1.95000    5.53     3.03   0.57369  3.5681
 1.90000    5.54     3.04   0.56836  3.5680
 1.85000    5.55     3.02   0.56205  3.5686
 1.80000    5.55     3.02   0.55714  3.5696
 1.75000    5.55     3.02   0.55069  3.5716
 1.70000    5.56     3.02   0.54525  3.5745
 1.65000    5.56     3.02   0.54721  3.5783
 1.60000    5.57     3.02   0.55369  3.5815
 1.55000    5.57     3.01   0.56424  3.5833
 1.50000    5.57     3.02   0.57487  3.5837
 1.45000    5.57     3.01   0.58096  3.5831
 1.40000    5.56     3.02   0.58712  3.5829
 1.35000    5.56     3.01   0.59149  3.5823
 1.30000    5.56     3.01   0.59533  3.5824
 1.25000    5.55     3.01   0.59893  3.5824
 1.20000    5.55     3.01   0.60192  3.5822
 1.15000    5.54     3.00   0.60402  3.5820
 1.10000    5.54     3.01   0.60635  3.5820
 1.05000    5.54     3.01   0.60824  3.5812
 1.00000    5.53     3.00   0.60960  3.5810
 0.95000    5.52     3.00   0.61095  3.5809
 0.90000    5.51     3.00   0.61238  3.5806
 0.85000    5.50     3.00   0.61423  3.5806
 0.80000    5.49     3.02   0.61590  3.5806
 0.75000    5.49     2.99   0.61864  3.5805
 0.70000    5.48     3.00   0.61793  3.5807
 0.65000    5.47     3.00   0.61769  3.5809
 0.60000    5.46     3.00   0.61859  3.5809
 0.55000    5.46     3.02   0.61984  3.5809
 0.50000    5.46     3.00   0.62276  3.5809
 0.45000    5.45     3.00   0.62504  3.5808
 0.40000    5.45     3.00   0.62451  3.5808
 0.35000    5.44     2.99   0.62843  3.5813
 0.30000    5.44     3.01   0.63028  3.5815
 0.25000    5.44     2.99   0.63050  3.5814
 0.20000    5.44     3.00   0.63195  3.5815
 0.15000    5.43     2.99   0.63432  3.5815
 0.10000    5.43     2.99   0.63623  3.5815
 0.05000    5.43     3.00   0.63732  3.5817
-0.00000    5.43     3.00   0.64011  3.5819
