 Field[T] Tsmpl[K] Tcntr[K] Signal   Mirror[MM]
 0.00000    5.02     2.92   0.68237  3.7555
 0.05000    4.99     2.94   0.68256  3.7554
 0.10000    4.97     2.94   0.68238  3.7554
 0.15000    4.97     2.94   0.68222  3.7554
 0.20000    4.95     2.94   0.68192  3.7556
 0.25000    4.95     2.95   0.68198  3.7556
 0.30000    4.94     2.95   0.68217  3.7554
 0.35000    4.93     2.94   0.68172  3.7556
 0.40000    4.92     2.93   0.68149  3.7558
 0.45000    4.91     2.96   0.68133  3.7559
 0.50000    4.91     2.95   0.68110  3.7559
 0.55000    4.90     2.96   0.68031  3.7563
 0.60000    4.89     2.94   0.67968  3.7565
 0.65000    4.86     2.94   0.67899  3.7566
 0.70000    4.84     2.94   0.67868  3.7568
 0.75000    4.84     2.95   0.67811  3.7570
 0.80000    4.83     2.94   0.67743  3.7570
 0.85000    4.83     2.93   0.67658  3.7572
 0.90000    4.82     2.94   0.67537  3.7574
 0.95000    4.81     2.95   0.67390  3.7574
 1.00000    4.81     2.94   0.67267  3.7576
 1.05000    4.80     2.92   0.67063  3.7581
 1.10000    4.77     2.94   0.66840  3.7582
 1.15000    4.76     2.93   0.66481  3.7583
 1.20000    4.75     2.93   0.66031  3.7587
 1.25000    4.74     2.94   0.65446  3.7583
 1.30000    4.74     2.94   0.64749  3.7575
 1.35000    4.72     2.92   0.64279  3.7555
 1.40000    4.71     2.92   0.64262  3.7532
 1.45000    4.70     2.92   0.64560  3.7512
 1.50000    4.67     2.92   0.65021  3.7500
 1.55000    4.66     2.92   0.65514  3.7494
 1.60000    4.64     2.91   0.65996  3.7491
 1.65000    4.62     2.91   0.66317  3.7491
 1.70000    4.60     2.92   0.66639  3.7491
 1.75000    4.60     2.94   0.66909  3.7488
 1.80000    4.59     2.93   0.67097  3.7489
 1.85000    4.59     2.93   0.67263  3.7493
 1.90000    4.60     2.94   0.67452  3.7492
 1.95000    4.61     2.96   0.67548  3.7496
 2.00000    4.62     2.97   0.67656  3.7496
 2.05000    4.63     2.98   0.67734  3.7497
 2.10000    4.64     2.97   0.67787  3.7499
 2.15000    4.68     2.97   0.67863  3.7499
 2.20000    4.71     2.99   0.67934  3.7499
 2.25000    4.73     2.98   0.68024  3.7499
 2.30000    4.74     2.99   0.68063  3.7498
 2.35000    4.73     2.99   0.68077  3.7501
 2.40000    4.72     2.98   0.68155  3.7500
 2.45000    4.71     2.99   0.68194  3.7500
 2.50000    4.70     2.99   0.68245  3.7502
 2.55000    4.70     2.99   0.68248  3.7503
 2.60000    4.69     2.99   0.68332  3.7503
 2.65000    4.69     2.99   0.68353  3.7504
 2.70000    4.69     3.00   0.68410  3.7504
 2.75000    4.69     2.99   0.68447  3.7505
 2.80000    4.69     2.99   0.68442  3.7505
 2.85000    4.69     2.99   0.68408  3.7507
 2.90000    4.69     3.00   0.68469  3.7505
 2.95000    4.70     3.01   0.68506  3.7507
 3.00000    4.71     3.01   0.68528  3.7507
 3.00000    4.72     3.02   0.68551  3.7504
 2.95000    4.74     3.02   0.68533  3.7504
 2.90000    4.75     3.02   0.68504  3.7506
 2.85000    4.76     3.02   0.68504  3.7505
 2.80000    4.76     3.03   0.68488  3.7505
 2.75000    4.76     3.03   0.68476  3.7500
 2.70000    4.77     3.04   0.68499  3.7500
 2.65000    4.80     3.05   0.68454  3.7502
 2.60000    4.83     3.05   0.68452  3.7499
 2.55000    4.85     3.06   0.68407  3.7497
 2.50000    4.86     3.07   0.68366  3.7499
 2.45000    4.88     3.07   0.68341  3.7499
 2.40000    4.89     3.07   0.68287  3.7499
 2.35000    4.91     3.07   0.68226  3.7497
 2.30000    4.92     3.07   0.68177  3.7497
 2.25000    4.93     3.07   0.68151  3.7498
 2.20000    4.95     3.07   0.68104  3.7494
 2.15000    4.96     3.09   0.68072  3.7496
 2.10000    4.97     3.08   0.67982  3.7494
 2.05000    4.96     3.08   0.67948  3.7495
 2.00000    4.96     3.07   0.67866  3.7493
 1.95000    4.95     3.07   0.67802  3.7492
 1.90000    4.96     3.06   0.67714  3.7490
 1.85000    4.96     3.06   0.67613  3.7483
 1.80000    4.97     3.05   0.67448  3.7483
 1.75000    4.97     3.08   0.67273  3.7480
 1.70000    4.99     3.05   0.66995  3.7478
 1.65000    4.99     3.05   0.66689  3.7477
 1.60000    4.98     3.07   0.66319  3.7479
 1.55000    4.99     3.05   0.65906  3.7485
 1.50000    4.99     3.04   0.65437  3.7494
 1.45000    4.99     3.04   0.64952  3.7504
 1.40000    4.99     3.04   0.64609  3.7517
 1.35000    4.99     3.04   0.64626  3.7537
 1.30000    4.99     3.03   0.65081  3.7555
 1.25000    4.99     3.02   0.65713  3.7566
 1.20000    4.99     3.03   0.66286  3.7571
 1.15000    4.99     3.02   0.66738  3.7572
 1.10000    4.99     3.03   0.67098  3.7571
 1.05000    4.99     3.02   0.67349  3.7566
 1.00000    4.99     3.02   0.67524  3.7562
 0.95000    4.99     3.03   0.67697  3.7558
 0.90000    4.98     3.01   0.67832  3.7554
 0.85000    4.96     3.02   0.67938  3.7550
 0.80000    4.95     3.01   0.67985  3.7553
 0.75000    4.94     3.00   0.68092  3.7552
 0.70000    4.93     3.01   0.68172  3.7553
 0.65000    4.93     3.00   0.68173  3.7551
 0.60000    4.93     3.00   0.68247  3.7549
 0.55000    4.93     3.00   0.68290  3.7546
 0.50000    4.93     3.00   0.68283  3.7546
 0.45000    4.92     3.00   0.68363  3.7544
 0.40000    4.91     3.01   0.68426  3.7541
 0.35000    4.92     3.00   0.68421  3.7540
 0.30000    4.92     3.00   0.68476  3.7538
 0.25000    4.91     3.00   0.68516  3.7538
 0.20000    4.91     2.99   0.68524  3.7538
 0.15000    4.92     2.99   0.68538  3.7538
 0.10000    4.92     2.99   0.68581  3.7536
 0.05000    4.93     3.00   0.68601  3.7534
-0.00000    4.94     2.98   0.68603  3.7536
