 Field[T] Tsmpl[K] Tcntr[K] Signal   Mirror[MM]
 0.00000    1.66     1.66   0.51052  -10.9826
 0.05000    1.66     1.66   0.50900  -10.9828
 0.10000    1.66     1.66   0.50691  -10.9825
 0.15000    1.66     1.66   0.50536  -10.9823
 0.20000    1.66     1.66   0.50271  -10.9820
 0.25000    1.66     1.66   0.49984  -10.9815
 0.30000    1.66     1.66   0.49475  -10.9807
 0.35000    1.66     1.66   0.49217  -10.9797
 0.40000    1.66     1.66   0.48262  -10.9789
 0.45000    1.66     1.66   0.47177  -10.9863
 0.50000    1.66     1.66   0.46942  -10.9931
 0.55000    1.66     1.66   0.46866  -10.9990
 0.60000    1.66     1.66   0.46941  -11.0035
 0.65000    1.66     1.66   0.47043  -11.0077
 0.70000    1.66     1.66   0.47284  -11.0114
 0.75000    1.66     1.66   0.47457  -11.0143
 0.80000    1.66     1.66   0.47793  -11.0169
 0.85000    1.66     1.66   0.48110  -11.0186
 0.90000    1.66     1.66   0.48307  -11.0192
 0.95000    1.66     1.66   0.48605  -11.0188
 1.00000    1.66     1.66   0.48649  -11.0190
 1.05000    1.66     1.66   0.48784  -11.0188
 1.10000    1.66     1.66   0.48859  -11.0186
 1.15000    1.66     1.66   0.48951  -11.0184
 1.20000    1.66     1.66   0.49063  -11.0183
 1.25000    1.66     1.66   0.49120  -11.0181
 1.30000    1.66     1.66   0.49143  -11.0183
 1.35000    1.66     1.66   0.49183  -11.0182
 1.40000    1.66     1.66   0.49258  -11.0182
 1.45000    1.66     1.66   0.49293  -11.0181
 1.50000    1.66     1.66   0.49353  -11.0183
 1.55000    1.66     1.66   0.49328  -11.0182
 1.60000    1.66     1.66   0.49378  -11.0181
 1.65000    1.66     1.66   0.49358  -11.0177
 1.70000    1.66     1.66   0.49329  -11.0176
 1.75000    1.66     1.66   0.49434  -11.0167
 1.80000    1.66     1.66   0.49483  -11.0167
 1.85000    1.66     1.66   0.49459  -11.0162
 1.90000    1.66     1.66   0.49482  -11.0161
 1.95000    1.66     1.66   0.49489  -11.0161
 2.00000    1.66     1.66   0.49552  -11.0164
 2.05000    1.66     1.66   0.49539  -11.0162
 2.10000    1.66     1.66   0.49560  -11.0165
 2.15000    1.66     1.66   0.49592  -11.0165
 2.20000    1.66     1.66   0.49606  -11.0162
 2.25000    1.66     1.66   0.49742  -11.0167
 2.30000    1.66     1.66   0.49855  -11.0172
 2.35000    1.66     1.66   0.49876  -11.0172
 2.40000    1.66     1.66   0.49862  -11.0168
 2.45000    1.66     1.66   0.49895  -11.0170
 2.50000    1.66     1.66   0.49888  -11.0168
 2.55000    1.66     1.66   0.49939  -11.0169
 2.60000    1.66     1.66   0.49865  -11.0167
 2.65000    1.66     1.66   0.49851  -11.0168
 2.70000    1.66     1.66   0.49827  -11.0164
 2.75000    1.66     1.66   0.49811  -11.0163
 2.80000    1.66     1.66   0.49783  -11.0165
 2.85000    1.66     1.66   0.49788  -11.0164
 2.90000    1.66     1.66   0.49739  -11.0168
 2.95000    1.66     1.66   0.49722  -11.0165
 3.00000    1.66     1.66   0.49787  -11.0166
 3.00000    1.66     1.66   0.49760  -11.0166
 2.95000    1.66     1.66   0.49696  -11.0158
 2.90000    1.66     1.66   0.49729  -11.0161
 2.85000    1.66     1.66   0.49818  -11.0166
 2.80000    1.66     1.66   0.49743  -11.0169
 2.75000    1.66     1.66   0.49731  -11.0166
 2.70000    1.66     1.66   0.49669  -11.0165
 2.65000    1.66     1.66   0.49718  -11.0163
 2.60000    1.66     1.66   0.49745  -11.0166
 2.55000    1.66     1.66   0.49713  -11.0168
 2.50000    1.66     1.66   0.49718  -11.0171
 2.45000    1.66     1.66   0.49755  -11.0170
 2.40000    1.66     1.66   0.49791  -11.0168
 2.35000    1.66     1.66   0.49738  -11.0166
 2.30000    1.66     1.66   0.49697  -11.0168
 2.25000    1.66     1.66   0.49741  -11.0171
 2.20000    1.66     1.66   0.49692  -11.0170
 2.15000    1.66     1.66   0.49713  -11.0175
 2.10000    1.66     1.66   0.49673  -11.0173
 2.05000    1.66     1.66   0.49641  -11.0173
 2.00000    1.66     1.66   0.49638  -11.0176
 1.95000    1.66     1.66   0.49570  -11.0178
 1.90000    1.66     1.66   0.49542  -11.0179
 1.85000    1.66     1.66   0.49472  -11.0177
 1.80000    1.66     1.66   0.49470  -11.0181
 1.75000    1.66     1.66   0.49346  -11.0182
 1.70000    1.66     1.66   0.49302  -11.0183
 1.65000    1.66     1.66   0.49281  -11.0183
 1.60000    1.66     1.66   0.49206  -11.0186
 1.55000    1.66     1.66   0.49122  -11.0182
 1.50000    1.66     1.66   0.49045  -11.0185
 1.45000    1.66     1.66   0.48968  -11.0187
 1.40000    1.66     1.66   0.48889  -11.0189
 1.35000    1.66     1.66   0.48868  -11.0190
 1.30000    1.66     1.66   0.48758  -11.0193
 1.25000    1.66     1.66   0.48622  -11.0192
 1.20000    1.66     1.66   0.48558  -11.0196
 1.15000    1.66     1.66   0.48481  -11.0194
 1.10000    1.66     1.66   0.48367  -11.0192
 1.05000    1.66     1.66   0.48240  -11.0196
 1.00000    1.66     1.66   0.48097  -11.0196
 0.95000    1.66     1.66   0.47900  -11.0198
 0.90000    1.66     1.66   0.47635  -11.0200
 0.85000    1.66     1.66   0.47265  -11.0194
 0.80000    1.66     1.66   0.46913  -11.0180
 0.75000    1.66     1.66   0.46500  -11.0156
 0.70000    1.66     1.66   0.46210  -11.0125
 0.65000    1.66     1.66   0.45937  -11.0091
 0.60000    1.66     1.66   0.45695  -11.0048
 0.55000    1.66     1.66   0.45511  -11.0003
 0.50000    1.66     1.66   0.45440  -10.9945
 0.45000    1.66     1.66   0.45625  -10.9879
 0.40000    1.66     1.66   0.46438  -10.9792
 0.35000    1.66     1.66   0.47394  -10.9792
 0.30000    1.66     1.66   0.47908  -10.9803
 0.25000    1.66     1.66   0.48209  -10.9812
 0.20000    1.66     1.66   0.48391  -10.9818
 0.15000    1.66     1.66   0.48573  -10.9820
 0.10000    1.66     1.66   0.48636  -10.9820
 0.05000    1.66     1.66   0.48665  -10.9824
 -0.00000    1.66     1.66   0.48761  -10.9826
