 Field[T] Tsmpl[K] Tcntr[K] Signal RefSignal
 0.00000    4.75     2.90   5.65800   2.15547
 0.05000    4.74     2.90   5.66140   2.15522
 0.10000    4.72     2.90   5.66010   2.15618
 0.15000    4.71     2.90   5.66180   2.15550
 0.20000    4.69     2.90   5.66340   2.15619
 0.25000    4.68     2.90   5.66410   2.15740
 0.30000    4.66     2.91   5.66320   2.15711
 0.35000    4.66     2.91   5.66720   2.15640
 0.40000    4.65     2.93   5.66400   2.15568
 0.45000    4.64     2.92   5.66510   2.15584
 0.50000    4.64     2.92   5.66380   2.15450
 0.55000    4.63     2.92   5.66370   2.15610
 0.60000    4.62     2.91   5.66290   2.15532
 0.65000    4.61     2.92   5.66630   2.15825
 0.70000    4.60     2.93   5.66520   2.15789
 0.75000    4.60     2.92   5.66240   2.15750
 0.80000    4.59     2.92   5.66160   2.15901
 0.85000    4.58     2.92   5.66060   2.15824
 0.90000    4.57     2.92   5.65540   2.15922
 0.95000    4.56     2.92   5.65420   2.15929
 1.00000    4.55     2.91   5.65300   2.16008
 1.05000    4.54     2.92   5.64490   2.15848
 1.10000    4.53     2.89   5.64120   2.15754
 1.15000    4.51     2.91   5.63520   2.15731
 1.20000    4.51     2.93   5.63200   2.15912
 1.25000    4.50     2.91   5.62420   2.15821
 1.30000    4.49     2.91   5.61570   2.15830
 1.35000    4.49     2.92   5.60650   2.15807
 1.40000    4.48     2.93   5.59290   2.15790
 1.45000    4.48     2.91   5.57430   2.15593
 1.50000    4.48     2.91   5.55360   2.15775
 1.55000    4.47     2.91   5.51870   2.15794
 1.60000    4.46     2.93   5.47670   2.15957
 1.65000    4.46     2.92   5.42650   2.15643
 1.70000    4.46     2.94   5.39480   2.15715
 1.75000    4.46     2.92   5.39380   2.15600
 1.80000    4.46     2.95   5.42010   2.15834
 1.85000    4.46     2.92   5.45000   2.15889
 1.90000    4.45     2.95   5.47810   2.15665
 1.95000    4.46     2.94   5.50350   2.15920
 2.00000    4.46     2.96   5.51600   2.15777
 2.05000    4.46     2.95   5.52160   2.15777
 2.10000    4.46     2.95   5.52480   2.15772
 2.15000    4.46     2.96   5.52400   2.15608
 2.20000    4.46     2.97   5.52520   2.15732
 2.25000    4.46     2.98   5.52670   2.15501
 2.30000    4.47     2.95   5.53200   2.15469
 2.35000    4.47     2.99   5.54140   2.15550
 2.40000    4.48     2.98   5.55030   2.15632
 2.45000    4.49     2.98   5.55750   2.15701
 2.50000    4.51     2.99   5.57110   2.15606
 2.55000    4.52     2.97   5.58180   2.15743
 2.60000    4.53     2.97   5.58850   2.15799
 2.65000    4.54     3.01   5.59600   2.15793
 2.70000    4.56     3.00   5.60600   2.15825
 2.75000    4.57     2.98   5.61310   2.15834
 2.80000    4.57     2.99   5.61980   2.15741
 2.85000    4.58     2.99   5.62050   2.15530
 2.90000    4.59     3.02   5.62410   2.15652
 2.95000    4.60     2.98   5.62600   2.15420
 3.00000    4.60     3.00   5.62870   2.15542
 3.05000    4.61     3.02   5.63670   2.15393
 3.10000    4.62     2.99   5.63780   2.15397
 3.15000    4.62     3.01   5.64450   2.15602
 3.20000    4.64     3.02   5.64590   2.15493
 3.25000    4.66     3.00   5.64740   2.15477
 3.30000    4.66     3.02   5.65060   2.15402
 3.35000    4.68     3.02   5.64870   2.15330
 3.40000    4.69     3.02   5.65710   2.15181
 3.45000    4.70     3.04   5.65860   2.15253
 3.50000    4.71     3.02   5.66100   2.15257
 3.55000    4.72     3.02   5.66400   2.15255
 3.60000    4.73     3.02   5.66510   2.15430
 3.65000    4.73     3.02   5.66740   2.15367
 3.70000    4.74     3.03   5.66720   2.15337
 3.75000    4.75     3.02   5.66770   2.15393
 3.80000    4.76     3.04   5.67260   2.15551
 3.85000    4.76     3.04   5.67440   2.15454
 3.90000    4.77     3.02   5.67480   2.15417
 3.95000    4.78     3.02   5.67830   2.15517
 4.00000    4.78     3.02   5.67860   2.15418
 4.05000    4.79     3.02   5.68320   2.15575
 4.10000    4.79     3.03   5.68060   2.15572
 4.15000    4.79     3.02   5.68440   2.15532
 4.20000    4.79     3.01   5.68630   2.15515
 4.25000    4.79     3.02   5.68380   2.15566
 4.30000    4.79     3.01   5.68610   2.15557
 4.35000    4.79     3.03   5.68700   2.15882
 4.40000    4.80     3.03   5.68710   2.15779
 4.45000    4.81     3.03   5.68720   2.15697
 4.50000    4.82     3.00   5.69030   2.15622
 4.55000    4.82     3.02   5.69220   2.15883
 4.60000    4.82     3.02   5.69450   2.15783
 4.65000    4.82     3.04   5.69320   2.15812
 4.70000    4.83     3.02   5.69440   2.15698
 4.75000    4.83     3.02   5.69270   2.15671
 4.80000    4.83     3.00   5.69400   2.15590
 4.85000    4.83     3.01   5.69650   2.15710
 4.90000    4.83     3.02   5.69650   2.15813
 4.95000    4.84     3.02   5.69760   2.15712
 5.00000    4.84     3.01   5.69740   2.15871
