 Field[T] Tsmpl[K] Tcntr[K] Signal RefSignal
 0.00000    5.20     2.97   2.80390   2.16395
 0.05000    5.17     2.96   2.80480   2.16355
 0.10000    5.14     2.96   2.80220   2.16458
 0.15000    5.11     2.95   2.80380   2.16345
 0.20000    5.08     2.95   2.79810   2.16243
 0.25000    5.06     2.95   2.79930   2.16230
 0.30000    5.03     2.93   2.79850   2.16362
 0.35000    5.01     2.93   2.79830   2.16394
 0.40000    4.99     2.92   2.79710   2.16312
 0.45000    4.96     2.91   2.79850   2.16396
 0.50000    4.93     2.90   2.79810   2.16518
 0.55000    4.90     2.89   2.79540   2.16304
 0.60000    4.88     2.89   2.79340   2.16406
 0.65000    4.85     2.88   2.79450   2.16490
 0.70000    4.83     2.87   2.79010   2.16485
 0.75000    4.80     2.86   2.78720   2.16448
 0.80000    4.77     2.87   2.78770   2.16597
 0.85000    4.74     2.88   2.78380   2.16464
 0.90000    4.72     2.85   2.78520   2.16436
 0.95000    4.70     2.85   2.78170   2.16428
 1.00000    4.67     2.84   2.77830   2.16506
 1.05000    4.65     2.84   2.77520   2.16460
 1.10000    4.63     2.84   2.77380   2.16574
 1.15000    4.61     2.85   2.76990   2.16428
 1.20000    4.59     2.86   2.76600   2.16431
 1.25000    4.58     2.86   2.76170   2.16365
 1.30000    4.56     2.86   2.75780   2.16394
 1.35000    4.55     2.86   2.75250   2.16266
 1.40000    4.54     2.87   2.74310   2.16184
 1.45000    4.53     2.88   2.73470   2.16184
 1.50000    4.52     2.87   2.71980   2.16062
 1.55000    4.51     2.88   2.70120   2.16093
 1.60000    4.51     2.88   2.67870   2.16197
 1.65000    4.50     2.89   2.65250   2.16286
 1.70000    4.49     2.92   2.63650   2.16163
 1.75000    4.49     2.89   2.63710   2.16053
 1.80000    4.49     2.91   2.64890   2.16112
 1.85000    4.48     2.90   2.67050   2.16095
 1.90000    4.48     2.93   2.68970   2.16267
 1.95000    4.48     2.91   2.70470   2.16210
 2.00000    4.48     2.92   2.71570   2.16218
 2.05000    4.47     2.92   2.72230   2.16142
 2.10000    4.48     2.94   2.72840   2.16033
 2.15000    4.48     2.93   2.73220   2.15934
 2.20000    4.48     2.94   2.73230   2.16110
 2.25000    4.49     2.94   2.73760   2.16234
 2.30000    4.50     2.95   2.74150   2.15976
 2.35000    4.52     2.95   2.74280   2.16043
 2.40000    4.53     2.96   2.74630   2.16178
 2.45000    4.55     2.98   2.75280   2.16120
 2.50000    4.56     2.97   2.75390   2.16246
 2.55000    4.58     2.98   2.75720   2.16131
 2.60000    4.59     2.97   2.75980   2.16106
 2.65000    4.61     2.98   2.76330   2.16145
 2.70000    4.62     2.99   2.76530   2.16204
 2.75000    4.64     2.99   2.76870   2.16009
 2.80000    4.64     2.98   2.77030   2.16245
 2.85000    4.65     2.99   2.77140   2.16391
 2.90000    4.65     2.98   2.77280   2.16151
 2.95000    4.66     3.00   2.77680   2.16276
 3.00000    4.66     3.01   2.77500   2.16189
 3.05000    4.68     2.97   2.77840   2.16443
 3.10000    4.68     3.00   2.77930   2.16319
 3.15000    4.68     3.00   2.78330   2.16219
 3.20000    4.69     2.99   2.78370   2.16295
 3.25000    4.69     3.01   2.78420   2.16293
 3.30000    4.70     3.00   2.78600   2.16362
 3.35000    4.70     2.99   2.78580   2.16382
 3.40000    4.71     3.00   2.78660   2.16401
 3.45000    4.71     2.99   2.78620   2.16264
 3.50000    4.72     3.01   2.78500   2.16444
 3.55000    4.72     3.01   2.78980   2.16345
 3.60000    4.73     2.99   2.78680   2.16378
 3.65000    4.73     3.00   2.78890   2.16250
 3.70000    4.73     3.00   2.78950   2.16468
 3.75000    4.73     3.00   2.79110   2.16357
 3.80000    4.74     3.01   2.78970   2.16357
 3.85000    4.74     2.99   2.79160   2.16343
 3.90000    4.74     3.01   2.79150   2.16436
 3.95000    4.75     3.02   2.79230   2.16454
 4.00000    4.76     3.03   2.79250   2.16399
 4.05000    4.78     3.00   2.79220   2.16406
 4.10000    4.78     3.01   2.79430   2.16413
 4.15000    4.79     3.01   2.79670   2.16487
 4.20000    4.80     3.01   2.79290   2.16250
 4.25000    4.80     3.03   2.79420   2.16389
 4.30000    4.81     3.02   2.79510   2.16373
 4.35000    4.81     3.02   2.79620   2.16318
 4.40000    4.81     3.04   2.79460   2.16268
 4.45000    4.81     3.02   2.79520   2.16327
 4.50000    4.82     3.03   2.79490   2.16336
 4.55000    4.82     3.03   2.79620   2.16353
 4.60000    4.83     3.03   2.79680   2.16552
 4.65000    4.84     3.02   2.79820   2.16334
 4.70000    4.85     3.04   2.79800   2.16344
 4.75000    4.87     3.01   2.79850   2.16294
 4.80000    4.88     3.01   2.79750   2.16228
 4.85000    4.89     3.01   2.79890   2.16133
 4.90000    4.91     3.01   2.79770   2.16057
 4.95000    4.92     3.01   2.80080   2.16126
 5.00000    4.94     3.01   2.79980   2.16274
