 Field[T] Tsmpl[K] Tcntr[K] Signal RefSignal
 5.00000    5.04     3.07   2.66700   2.15723
 4.95000    5.07     3.08   2.66770   2.15821
 4.90000    5.09     3.07   2.66820   2.15802
 4.85000    5.11     3.08   2.66740   2.15798
 4.80000    5.14     3.08   2.66640   2.15598
 4.75000    5.16     3.09   2.66740   2.15775
 4.70000    5.19     3.09   2.66670   2.15914
 4.65000    5.21     3.11   2.66890   2.15996
 4.60000    5.25     3.12   2.66810   2.15960
 4.55000    5.26     3.10   2.66650   2.15968
 4.50000    5.29     3.12   2.66650   2.15881
 4.45000    5.32     3.12   2.66680   2.15829
 4.40000    5.34     3.12   2.66580   2.15975
 4.35000    5.36     3.12   2.66610   2.15874
 4.30000    5.37     3.13   2.66420   2.15768
 4.25000    5.39     3.13   2.66590   2.15767
 4.20000    5.42     3.12   2.66210   2.15687
 4.15000    5.44     3.12   2.66060   2.15653
 4.10000    5.46     3.11   2.66100   2.15710
 4.05000    5.48     3.11   2.66010   2.15630
 4.00000    5.50     3.11   2.66040   2.15621
 3.95000    5.51     3.11   2.66140   2.15612
 3.90000    5.53     3.11   2.65810   2.15704
 3.85000    5.54     3.12   2.65860   2.15783
 3.80000    5.56     3.12   2.65760   2.15895
 3.75000    5.58     3.10   2.65680   2.15815
 3.70000    5.59     3.10   2.65670   2.15779
 3.65000    5.60     3.09   2.65580   2.15837
 3.60000    5.61     3.09   2.65520   2.15867
 3.55000    5.63     3.09   2.65310   2.15786
 3.50000    5.64     3.10   2.65440   2.15848
 3.45000    5.65     3.07   2.65090   2.15736
 3.40000    5.66     3.07   2.65080   2.15754
 3.35000    5.67     3.07   2.64710   2.15781
 3.30000    5.68     3.08   2.64610   2.15832
 3.25000    5.68     3.08   2.64660   2.15758
 3.20000    5.70     3.07   2.64420   2.16018
 3.15000    5.71     3.07   2.64360   2.15912
 3.10000    5.71     3.05   2.63900   2.16020
 3.05000    5.71     3.06   2.63960   2.16153
 3.00000    5.72     3.06   2.63660   2.16080
 2.95000    5.72     3.04   2.63310   2.16102
 2.90000    5.72     3.03   2.63060   2.16042
 2.85000    5.72     3.03   2.62590   2.15988
 2.80000    5.73     3.03   2.62050   2.16024
 2.75000    5.72     3.02   2.61840   2.16056
 2.70000    5.73     3.04   2.61130   2.16108
 2.65000    5.73     3.02   2.60840   2.15977
 2.60000    5.73     3.02   2.60140   2.15887
 2.55000    5.73     3.02   2.59580   2.15986
 2.50000    5.73     3.01   2.58990   2.15987
 2.45000    5.73     3.03   2.58390   2.15881
 2.40000    5.74     3.03   2.58180   2.15872
 2.35000    5.73     3.01   2.57400   2.15951
 2.30000    5.73     3.01   2.56890   2.15885
 2.25000    5.72     3.01   2.56640   2.15874
 2.20000    5.72     3.01   2.56680   2.15722
 2.15000    5.71     3.01   2.56650   2.15903
 2.10000    5.70     3.01   2.56980   2.15886
 2.05000    5.70     3.01   2.57210   2.15834
 2.00000    5.69     3.00   2.57320   2.15992
 1.95000    5.69     3.01   2.56910   2.16058
 1.90000    5.69     3.02   2.56590   2.16116
 1.85000    5.68     3.00   2.55400   2.15911
 1.80000    5.68     3.01   2.54460   2.15987
 1.75000    5.67     3.00   2.53660   2.16025
 1.70000    5.66     3.01   2.53710   2.15813
 1.65000    5.65     3.01   2.54970   2.15904
 1.60000    5.65     3.01   2.56940   2.16101
 1.55000    5.63     3.00   2.58930   2.15905
 1.50000    5.62     3.00   2.60100   2.15989
 1.45000    5.61     3.00   2.61300   2.16080
 1.40000    5.59     3.00   2.61720   2.16141
 1.35000    5.58     3.01   2.62500   2.16062
 1.30000    5.57     3.01   2.62990   2.16062
 1.25000    5.55     2.99   2.63050   2.16047
 1.20000    5.54     2.99   2.63330   2.16148
 1.15000    5.53     2.99   2.63730   2.16336
 1.10000    5.52     2.99   2.63710   2.16187
 1.05000    5.50     3.00   2.63870   2.16374
 1.00000    5.49     3.00   2.64040   2.16300
 0.95000    5.48     2.99   2.64120   2.16469
 0.90000    5.47     2.99   2.64030   2.16228
 0.85000    5.47     2.99   2.64340   2.16257
 0.80000    5.45     2.99   2.64420   2.16245
 0.75000    5.44     3.01   2.64280   2.16356
 0.70000    5.43     2.99   2.64250   2.16245
 0.65000    5.42     2.99   2.64110   2.16089
 0.60000    5.42     3.00   2.64150   2.15948
 0.55000    5.41     3.01   2.63860   2.15996
 0.50000    5.40     2.99   2.63740   2.15866
 0.45000    5.40     3.00   2.63930   2.15863
 0.40000    5.39     2.99   2.63700   2.15824
 0.35000    5.38     2.99   2.63710   2.15862
 0.30000    5.38     3.00   2.63590   2.15966
 0.25000    5.36     3.01   2.63570   2.15984
 0.20000    5.36     2.99   2.63640   2.16062
 0.15000    5.35     2.99   2.63560   2.16199
 0.10000    5.34     2.99   2.63650   2.16142
 0.05000    5.34     2.99   2.63580   2.16174
-0.00000    5.33     2.99   2.63700   2.15998
