 Field[T] Tsmpl[K] Tcntr[K] Signal   Mirror[MM]
 0.00000    1.80     1.80   1.21316  2.3071
 0.05000    1.80     1.80   1.20621  2.3077
 0.10000    1.80     1.80   1.21303  2.3079
 0.15000    1.80     1.80   1.21838  2.3080
 0.20000    1.80     1.80   1.20660  2.3073
 0.25000    1.80     1.80   1.20553  2.3080
 0.30000    1.80     1.80   1.20538  2.3072
 0.35000    1.80     1.80   1.20902  2.3075
 0.40000    1.80     1.80   1.19153  2.3086
 0.45000    1.80     1.80   1.20076  2.3065
 0.50000    1.80     1.80   1.19645  2.3063
 0.55000    1.80     1.80   1.19358  2.3052
 0.60000    1.80     1.80   1.19062  2.3053
 0.65000    1.80     1.80   1.20240  2.3045
 0.70000    1.80     1.80   1.20343  2.3045
 0.75000    1.80     1.80   1.20818  2.3046
 0.80000    1.80     1.80   1.20840  2.3043
 0.85000    1.80     1.80   1.21071  2.3057
 0.90000    1.80     1.80   1.20873  2.3043
 0.95000    1.80     1.80   1.20259  2.3044
 1.00000    1.80     1.80   1.19024  2.3046
 1.05000    1.80     1.80   1.19644  2.3047
 1.10000    1.80     1.80   1.20664  2.3051
 1.15000    1.80     1.80   1.19832  2.3051
 1.20000    1.80     1.80   1.17776  2.3056
 1.25000    1.80     1.80   1.19245  2.3064
 1.30000    1.80     1.80   1.18827  2.3067
 1.35000    1.80     1.80   1.19296  2.3060
 1.40000    1.80     1.80   1.18273  2.3067
 1.45000    1.80     1.80   1.17961  2.3072
 1.50000    1.80     1.80   1.19160  2.3076
 1.55000    1.80     1.80   1.18805  2.3070
 1.60000    1.80     1.80   1.18898  2.3071
 1.65000    1.80     1.80   1.17648  2.3046
 1.70000    1.80     1.80   1.19715  2.3047
 1.75000    1.80     1.80   1.18986  2.3059
 1.80000    1.80     1.80   1.19004  2.3063
 1.85000    1.80     1.80   1.20767  2.3048
 1.90000    1.80     1.80   1.18964  2.3046
 1.95000    1.80     1.80   1.19997  2.3054
 2.00000    1.80     1.80   1.21525  2.3056
 2.05000    1.80     1.80   1.16444  2.3067
 2.10000    1.80     1.80   1.19440  2.3046
 2.15000    1.80     1.80   1.17269  2.3075
 2.20000    1.80     1.80   1.17859  2.3058
 2.25000    1.80     1.80   1.16887  2.3065
 2.30000    1.80     1.80   1.18548  2.3052
 2.35000    1.80     1.80   1.17586  2.3071
 2.40000    1.80     1.80   1.15470  2.3061
 2.45000    1.80     1.80   1.19761  2.3067
 2.50000    1.80     1.80   1.15774  2.3055
 2.55000    1.80     1.80   1.16700  2.3071
 2.60000    1.80     1.80   1.16593  2.3067
 2.65000    1.80     1.80   1.16221  2.3066
 2.70000    1.80     1.80   1.14605  2.3063
 2.75000    1.80     1.80   1.20093  2.3054
 2.80000    1.80     1.80   1.18134  2.3057
 2.85000    1.80     1.80   1.15453  2.3063
 2.90000    1.80     1.80   1.16697  2.3056
 2.95000    1.80     1.80   1.18261  2.3064
 3.00000    1.80     1.80   1.16843  2.3088
 3.00000    1.80     1.80   1.17020  2.3051
 2.95000    1.80     1.80   1.17040  2.3044
 2.90000    1.80     1.80   1.18228  2.3062
 2.85000    1.80     1.80   1.17224  2.3047
 2.80000    1.80     1.80   1.18599  2.3056
 2.75000    1.80     1.80   1.16523  2.3070
 2.70000    1.80     1.80   1.19236  2.3050
 2.65000    1.80     1.80   1.17429  2.3052
 2.60000    1.80     1.80   1.17902  2.3058
 2.55000    1.80     1.80   1.15311  2.3059
 2.50000    1.80     1.80   1.16981  2.3057
 2.45000    1.80     1.80   1.17740  2.3061
 2.40000    1.80     1.80   1.15432  2.3066
 2.35000    1.80     1.80   1.18585  2.3047
 2.30000    1.80     1.80   1.16701  2.3062
 2.25000    1.80     1.80   1.16010  2.3048
 2.20000    1.80     1.80   1.17162  2.3060
 2.15000    1.80     1.80   1.16788  2.3064
 2.10000    1.80     1.80   1.17666  2.3042
 2.05000    1.80     1.80   1.20463  2.3064
 2.00000    1.80     1.80   1.17847  2.3055
 1.95000    1.80     1.80   1.16548  2.3077
 1.90000    1.80     1.80   1.18179  2.3045
 1.85000    1.80     1.80   1.19277  2.3070
 1.80000    1.80     1.80   1.17764  2.3057
 1.75000    1.80     1.80   1.19491  2.3038
 1.70000    1.80     1.80   1.17035  2.3067
 1.65000    1.80     1.80   1.18295  2.3043
 1.60000    1.80     1.80   1.18819  2.3052
 1.55000    1.80     1.80   1.17697  2.3062
 1.50000    1.80     1.80   1.19866  2.3050
 1.45000    1.80     1.80   1.16855  2.3065
 1.40000    1.80     1.80   1.16436  2.3059
 1.35000    1.80     1.80   1.18044  2.3053
 1.30000    1.80     1.80   1.19883  2.3050
 1.25000    1.80     1.80   1.16907  2.3049
 1.20000    1.80     1.80   1.16467  2.3054
 1.15000    1.80     1.80   1.16070  2.3053
 1.10000    1.80     1.80   1.17499  2.3055
 1.05000    1.80     1.80   1.15583  2.3066
 1.00000    1.80     1.80   1.17970  2.3075
 0.95000    1.80     1.80   1.18598  2.3067
 0.90000    1.80     1.80   1.15614  2.3059
 0.85000    1.80     1.80   1.18302  2.3052
 0.80000    1.80     1.80   1.18883  2.3037
 0.75000    1.80     1.80   1.17302  2.3048
 0.70000    1.80     1.80   1.17328  2.3058
 0.65000    1.80     1.80   1.16888  2.3051
 0.60000    1.80     1.80   1.17408  2.3054
 0.55000    1.80     1.80   1.18460  2.3045
 0.50000    1.80     1.80   1.16157  2.3042
 0.45000    1.80     1.80   1.17996  2.3073
 0.40000    1.80     1.80   1.16763  2.3087
 0.35000    1.80     1.80   1.17581  2.3081
 0.30000    1.80     1.80   1.16101  2.3078
 0.25000    1.80     1.80   1.18807  2.3086
 0.20000    1.80     1.80   1.19596  2.3089
 0.15000    1.80     1.80   1.16418  2.3107
 0.10000    1.80     1.80   1.16893  2.3078
 0.05000    1.80     1.80   1.16762  2.3078
 -0.00000    1.80     1.80   1.16756  2.3072
