 Field[T] Tsmpl[K] Tcntr[K] Signal   Mirror[MM]
 0.00000    1.80     1.80   0.19913  -8.9156
 0.05000    1.80     1.80   0.19879  -8.9155
 0.10000    1.80     1.80   0.19888  -8.9156
 0.15000    1.80     1.80   0.19886  -8.9157
 0.20000    1.80     1.80   0.19827  -8.9149
 0.25000    1.80     1.80   0.19857  -8.9159
 0.30000    1.80     1.80   0.19846  -8.9162
 0.35000    1.80     1.80   0.19809  -8.9166
 0.40000    1.80     1.80   0.19795  -8.9168
 0.45000    1.80     1.80   0.19742  -8.9168
 0.50000    1.80     1.80   0.19655  -8.9175
 0.55000    1.80     1.80   0.19563  -8.9206
 0.60000    1.80     1.80   0.19681  -8.9228
 0.65000    1.80     1.80   0.19784  -8.9242
 0.70000    1.80     1.80   0.19878  -8.9249
 0.75000    1.80     1.80   0.19977  -8.9255
 0.80000    1.80     1.80   0.20062  -8.9257
 0.85000    1.80     1.80   0.20148  -8.9255
 0.90000    1.80     1.80   0.20224  -8.9255
 0.95000    1.80     1.80   0.20286  -8.9248
 1.00000    1.80     1.80   0.20339  -8.9243
 1.05000    1.80     1.80   0.20366  -8.9237
 1.10000    1.80     1.80   0.20383  -8.9231
 1.15000    1.80     1.80   0.20398  -8.9228
 1.20000    1.80     1.80   0.20403  -8.9225
 1.25000    1.80     1.80   0.20402  -8.9224
 1.30000    1.80     1.80   0.20404  -8.9219
 1.35000    1.80     1.80   0.20425  -8.9218
 1.40000    1.80     1.80   0.20434  -8.9215
 1.45000    1.80     1.80   0.20430  -8.9214
 1.50000    1.80     1.80   0.20432  -8.9212
 1.55000    1.80     1.80   0.20431  -8.9210
 1.60000    1.80     1.80   0.20450  -8.9209
 1.65000    1.80     1.80   0.20463  -8.9208
 1.70000    1.80     1.80   0.20459  -8.9205
 1.75000    1.80     1.80   0.20448  -8.9205
 1.80000    1.80     1.80   0.20448  -8.9204
 1.85000    1.80     1.80   0.20448  -8.9201
 1.90000    1.80     1.80   0.20447  -8.9201
 1.95000    1.80     1.80   0.20444  -8.9202
 2.00000    1.80     1.80   0.20448  -8.9199
 2.05000    1.80     1.80   0.20433  -8.9198
 2.10000    1.80     1.80   0.20427  -8.9197
 2.15000    1.80     1.80   0.20415  -8.9193
 2.20000    1.80     1.80   0.20420  -8.9192
 2.25000    1.80     1.80   0.20439  -8.9192
 2.30000    1.80     1.80   0.20430  -8.9193
 2.35000    1.80     1.80   0.20416  -8.9190
 2.40000    1.80     1.80   0.20420  -8.9188
 2.45000    1.80     1.80   0.20416  -8.9191
 2.50000    1.80     1.80   0.20402  -8.9190
 2.55000    1.80     1.80   0.20406  -8.9190
 2.60000    1.80     1.80   0.20402  -8.9190
 2.65000    1.80     1.80   0.20399  -8.9188
 2.70000    1.80     1.80   0.20382  -8.9186
 2.75000    1.80     1.80   0.20377  -8.9186
 2.80000    1.80     1.80   0.20390  -8.9187
 2.85000    1.80     1.80   0.20391  -8.9189
 2.90000    1.80     1.80   0.20379  -8.9189
 2.95000    1.80     1.80   0.20368  -8.9188
 3.00000    1.80     1.80   0.20360  -8.9186
 3.00000    1.80     1.80   0.20364  -8.9184
 2.95000    1.80     1.80   0.20357  -8.9180
 2.90000    1.80     1.80   0.20347  -8.9179
 2.85000    1.80     1.80   0.20372  -8.9185
 2.80000    1.80     1.80   0.20376  -8.9183
 2.75000    1.80     1.80   0.20375  -8.9185
 2.70000    1.80     1.80   0.20374  -8.9185
 2.65000    1.80     1.80   0.20374  -8.9183
 2.60000    1.80     1.80   0.20380  -8.9186
 2.55000    1.80     1.80   0.20387  -8.9183
 2.50000    1.80     1.80   0.20399  -8.9183
 2.45000    1.80     1.80   0.20406  -8.9184
 2.40000    1.80     1.80   0.20406  -8.9186
 2.35000    1.80     1.80   0.20413  -8.9183
 2.30000    1.80     1.80   0.20412  -8.9185
 2.25000    1.80     1.80   0.20398  -8.9185
 2.20000    1.80     1.80   0.20416  -8.9185
 2.15000    1.80     1.80   0.20424  -8.9186
 2.10000    1.80     1.80   0.20431  -8.9188
 2.05000    1.80     1.80   0.20432  -8.9188
 2.00000    1.80     1.80   0.20428  -8.9190
 1.95000    1.80     1.80   0.20435  -8.9188
 1.90000    1.80     1.80   0.20429  -8.9188
 1.85000    1.80     1.80   0.20437  -8.9191
 1.80000    1.80     1.80   0.20437  -8.9192
 1.75000    1.80     1.80   0.20443  -8.9193
 1.70000    1.80     1.80   0.20449  -8.9195
 1.65000    1.80     1.80   0.20447  -8.9198
 1.60000    1.80     1.80   0.20433  -8.9196
 1.55000    1.80     1.80   0.20425  -8.9199
 1.50000    1.80     1.80   0.20438  -8.9201
 1.45000    1.80     1.80   0.20437  -8.9202
 1.40000    1.80     1.80   0.20428  -8.9202
 1.35000    1.80     1.80   0.20429  -8.9206
 1.30000    1.80     1.80   0.20430  -8.9209
 1.25000    1.80     1.80   0.20420  -8.9210
 1.20000    1.80     1.80   0.20411  -8.9214
 1.15000    1.80     1.80   0.20389  -8.9217
 1.10000    1.80     1.80   0.20370  -8.9223
 1.05000    1.80     1.80   0.20357  -8.9224
 1.00000    1.80     1.80   0.20340  -8.9228
 0.95000    1.80     1.80   0.20288  -8.9236
 0.90000    1.80     1.80   0.20241  -8.9244
 0.85000    1.80     1.80   0.20168  -8.9244
 0.80000    1.80     1.80   0.20074  -8.9245
 0.75000    1.80     1.80   0.19999  -8.9244
 0.70000    1.80     1.80   0.19923  -8.9239
 0.65000    1.80     1.80   0.19800  -8.9233
 0.60000    1.80     1.80   0.19699  -8.9220
 0.55000    1.80     1.80   0.19590  -8.9205
 0.50000    1.80     1.80   0.19647  -8.9169
 0.45000    1.80     1.80   0.19731  -8.9161
 0.40000    1.80     1.80   0.19793  -8.9158
 0.35000    1.80     1.80   0.19833  -8.9156
 0.30000    1.80     1.80   0.19854  -8.9151
 0.25000    1.80     1.80   0.19886  -8.9150
 0.20000    1.80     1.80   0.19878  -8.9148
 0.15000    1.80     1.80   0.19890  -8.9147
 0.10000    1.80     1.80   0.19892  -8.9147
 0.05000    1.80     1.80   0.19904  -8.9145
 -0.00000    1.80     1.80   0.19906  -8.9146
