 Field[T] Tsmpl[K] Tcntr[K] Signal   Mirror[MM]
 0.00000    1.79     1.79   0.25605  -9.0004
 0.05000    1.79     1.79   0.25156  -8.9998
 0.10000    1.79     1.79   0.25014  -8.9995
 0.15000    1.79     1.79   0.25110  -8.9996
 0.20000    1.79     1.79   0.25145  -8.9995
 0.25000    1.79     1.79   0.25193  -8.9995
 0.30000    1.79     1.79   0.25246  -8.9996
 0.35000    1.79     1.79   0.25276  -8.9998
 0.40000    1.79     1.79   0.25306  -8.9997
 0.45000    1.79     1.79   0.25354  -8.9997
 0.50000    1.79     1.79   0.25411  -8.9996
 0.55000    1.79     1.79   0.25453  -8.9995
 0.60000    1.79     1.79   0.25512  -8.9996
 0.65000    1.79     1.79   0.25547  -8.9995
 0.70000    1.79     1.79   0.25556  -8.9993
 0.75000    1.79     1.79   0.25568  -8.9993
 0.80000    1.79     1.79   0.25577  -8.9992
 0.85000    1.79     1.79   0.25604  -8.9991
 0.90000    1.79     1.79   0.25559  -8.9990
 0.95000    1.79     1.79   0.25552  -8.9992
 1.00000    1.79     1.79   0.25573  -8.9997
 1.05000    1.79     1.79   0.25604  -9.0002
 1.10000    1.79     1.79   0.25639  -9.0004
 1.15000    1.79     1.79   0.25652  -9.0007
 1.20000    1.79     1.79   0.25651  -9.0008
 1.25000    1.79     1.79   0.25684  -9.0011
 1.30000    1.79     1.79   0.25737  -9.0011
 1.35000    1.79     1.79   0.25789  -9.0012
 1.40000    1.79     1.79   0.25812  -9.0011
 1.45000    1.79     1.79   0.25826  -9.0011
 1.50000    1.79     1.79   0.25840  -9.0009
 1.55000    1.79     1.79   0.25846  -9.0011
 1.60000    1.79     1.79   0.25861  -9.0010
 1.65000    1.79     1.79   0.25865  -9.0011
 1.70000    1.79     1.79   0.25853  -9.0010
 1.75000    1.79     1.79   0.25869  -9.0008
 1.80000    1.79     1.79   0.25888  -9.0008
 1.85000    1.79     1.79   0.25898  -9.0008
 1.90000    1.79     1.79   0.25894  -9.0011
 1.95000    1.79     1.79   0.25865  -9.0009
 2.00000    1.79     1.79   0.25854  -9.0008
 2.05000    1.79     1.79   0.25854  -9.0010
 2.10000    1.79     1.79   0.25858  -9.0009
 2.15000    1.79     1.79   0.25869  -9.0009
 2.20000    1.79     1.79   0.25896  -9.0010
 2.25000    1.79     1.79   0.25878  -9.0008
 2.30000    1.79     1.79   0.25861  -9.0010
 2.35000    1.79     1.79   0.25841  -9.0012
 2.40000    1.79     1.79   0.25838  -9.0009
 2.45000    1.79     1.79   0.25840  -9.0010
 2.50000    1.79     1.79   0.25853  -9.0010
 2.55000    1.79     1.79   0.25869  -9.0011
 2.60000    1.79     1.79   0.25849  -9.0009
 2.65000    1.79     1.79   0.25844  -9.0010
 2.70000    1.79     1.79   0.25820  -9.0009
 2.75000    1.79     1.79   0.25808  -9.0008
 2.80000    1.79     1.79   0.25820  -9.0011
 2.85000    1.79     1.79   0.25797  -9.0009
 2.90000    1.79     1.79   0.25767  -9.0006
 2.95000    1.79     1.79   0.25802  -9.0006
 3.00000    1.79     1.79   0.25790  -9.0009
 3.00000    1.79     1.79   0.25797  -9.0009
 2.95000    1.79     1.79   0.25778  -9.0007
 2.90000    1.79     1.79   0.25820  -9.0008
 2.85000    1.79     1.79   0.25805  -9.0009
 2.80000    1.79     1.79   0.25793  -9.0009
 2.75000    1.79     1.79   0.25786  -9.0008
 2.70000    1.79     1.79   0.25785  -9.0009
 2.65000    1.79     1.79   0.25799  -9.0007
 2.60000    1.79     1.79   0.25803  -9.0010
 2.55000    1.79     1.79   0.25775  -9.0010
 2.50000    1.79     1.79   0.25739  -9.0009
 2.45000    1.79     1.79   0.25737  -9.0010
 2.40000    1.79     1.79   0.25750  -9.0012
 2.35000    1.79     1.79   0.25779  -9.0013
 2.30000    1.79     1.79   0.25767  -9.0013
 2.25000    1.79     1.79   0.25758  -9.0015
 2.20000    1.79     1.79   0.25757  -9.0009
 2.15000    1.79     1.79   0.25743  -9.0010
 2.10000    1.79     1.79   0.25743  -9.0007
 2.05000    1.79     1.79   0.25739  -9.0011
 2.00000    1.79     1.79   0.25765  -9.0009
 1.95000    1.79     1.79   0.25763  -9.0011
 1.90000    1.79     1.79   0.25761  -9.0009
 1.85000    1.79     1.79   0.25745  -9.0011
 1.80000    1.79     1.79   0.25729  -9.0011
 1.75000    1.79     1.79   0.25687  -9.0012
 1.70000    1.79     1.79   0.25700  -9.0010
 1.65000    1.79     1.79   0.25684  -9.0011
 1.60000    1.79     1.79   0.25672  -9.0009
 1.55000    1.79     1.79   0.25675  -9.0009
 1.50000    1.79     1.79   0.25694  -9.0010
 1.45000    1.79     1.79   0.25713  -9.0008
 1.40000    1.79     1.79   0.25706  -9.0009
 1.35000    1.79     1.79   0.25664  -9.0012
 1.30000    1.79     1.79   0.25628  -9.0010
 1.25000    1.79     1.79   0.25646  -9.0010
 1.20000    1.79     1.79   0.25612  -9.0010
 1.15000    1.79     1.79   0.25607  -9.0004
 1.10000    1.79     1.79   0.25618  -9.0004
 1.05000    1.79     1.79   0.25623  -9.0002
 1.00000    1.79     1.79   0.25616  -9.0002
 0.95000    1.79     1.79   0.25630  -8.9997
 0.90000    1.79     1.79   0.25715  -8.9997
 0.85000    1.79     1.79   0.25742  -8.9991
 0.80000    1.79     1.79   0.25734  -8.9992
 0.75000    1.79     1.79   0.25762  -8.9994
 0.70000    1.79     1.79   0.25754  -8.9996
 0.65000    1.79     1.79   0.25766  -8.9994
 0.60000    1.79     1.79   0.25797  -8.9994
 0.55000    1.79     1.79   0.25812  -8.9997
 0.50000    1.79     1.79   0.25826  -8.9994
 0.45000    1.79     1.79   0.25817  -8.9997
 0.40000    1.79     1.79   0.25832  -8.9997
 0.35000    1.79     1.79   0.25838  -8.9996
 0.30000    1.79     1.79   0.25802  -8.9996
 0.25000    1.79     1.79   0.25805  -8.9996
 0.20000    1.79     1.79   0.25773  -8.9994
 0.15000    1.79     1.79   0.25777  -8.9995
 0.10000    1.79     1.79   0.25787  -8.9997
 0.05000    1.79     1.79   0.25797  -8.9997
 -0.00000    1.79     1.79   0.25813  -8.9995
