 Field[T] Tsmpl[K] Tcntr[K] Signal   Mirror[MM]
 0.00000    5.32     2.99   1.80384  1.0638
 0.05000    5.32     2.99   1.80301  1.0633
 0.10000    5.32     2.99   1.80253  1.0631
 0.15000    5.32     2.99   1.80160  1.0630
 0.20000    5.32     2.99   1.80111  1.0628
 0.25000    5.32     3.00   1.80016  1.0626
 0.30000    5.32     2.99   1.79771  1.0624
 0.35000    5.31     3.00   1.79729  1.0620
 0.40000    5.30     3.00   1.79535  1.0617
 0.45000    5.28     3.00   1.79368  1.0616
 0.50000    5.27     2.99   1.79173  1.0615
 0.55000    5.25     3.00   1.79001  1.0611
 0.60000    5.24     2.99   1.78783  1.0610
 0.65000    5.23     2.99   1.78509  1.0608
 0.70000    5.23     3.00   1.78231  1.0604
 0.75000    5.22     2.98   1.77776  1.0601
 0.80000    5.22     2.99   1.77319  1.0600
 0.85000    5.22     2.98   1.76646  1.0598
 0.90000    5.22     2.98   1.75840  1.0592
 0.95000    5.22     2.98   1.74927  1.0581
 1.00000    5.21     2.98   1.74322  1.0562
 1.05000    5.21     2.98   1.74408  1.0540
 1.10000    5.20     2.96   1.75236  1.0523
 1.15000    5.19     2.97   1.76496  1.0511
 1.20000    5.19     2.98   1.77694  1.0506
 1.25000    5.18     2.97   1.78677  1.0507
 1.30000    5.18     2.97   1.79447  1.0507
 1.35000    5.18     2.98   1.80035  1.0511
 1.40000    5.18     2.97   1.80496  1.0513
 1.45000    5.19     2.98   1.80812  1.0513
 1.50000    5.19     2.98   1.81025  1.0517
 1.55000    5.20     2.98   1.81210  1.0518
 1.60000    5.22     2.98   1.81321  1.0522
 1.65000    5.22     2.98   1.81418  1.0523
 1.70000    5.23     2.99   1.81483  1.0525
 1.75000    5.24     2.98   1.81519  1.0524
 1.80000    5.24     3.00   1.81593  1.0525
 1.85000    5.26     3.00   1.81636  1.0528
 1.90000    5.26     3.00   1.81698  1.0528
 1.95000    5.26     2.99   1.81748  1.0527
 2.00000    5.27     3.00   1.81808  1.0529
 2.00000    5.27     2.99   1.81805  1.0529
 1.95000    5.26     3.00   1.81730  1.0527
 1.90000    5.26     3.00   1.81770  1.0528
 1.85000    5.25     3.00   1.81670  1.0527
 1.80000    5.24     3.00   1.81599  1.0527
 1.75000    5.22     3.00   1.81380  1.0527
 1.70000    5.21     3.01   1.81409  1.0526
 1.65000    5.20     3.01   1.81306  1.0525
 1.60000    5.19     2.99   1.81229  1.0522
 1.55000    5.18     3.01   1.81120  1.0519
 1.50000    5.18     3.00   1.80967  1.0517
 1.45000    5.18     3.01   1.80725  1.0515
 1.40000    5.18     3.01   1.80452  1.0511
 1.35000    5.18     3.01   1.80019  1.0509
 1.30000    5.19     3.02   1.79548  1.0508
 1.25000    5.20     3.02   1.78799  1.0506
 1.20000    5.20     3.02   1.77803  1.0506
 1.15000    5.21     3.02   1.76638  1.0510
 1.10000    5.22     3.03   1.75433  1.0521
 1.05000    5.22     3.01   1.74443  1.0539
 1.00000    5.23     3.02   1.74231  1.0561
 0.95000    5.23     3.02   1.74811  1.0578
 0.90000    5.24     3.02   1.75743  1.0590
 0.85000    5.24     3.03   1.76420  1.0604
 0.80000    5.25     3.02   1.77069  1.0604
 0.75000    5.25     3.01   1.77626  1.0606
 0.70000    5.25     3.01   1.78100  1.0608
 0.65000    5.25     3.00   1.78405  1.0609
 0.60000    5.24     3.01   1.78664  1.0611
 0.55000    5.24     3.01   1.78915  1.0612
 0.50000    5.24     3.01   1.79155  1.0614
 0.45000    5.24     3.01   0.33240  1.0605
 0.40000    5.24     3.02   0.00003  2.0645
 0.35000    5.25     3.01   1.79611  1.0625
 0.30000    5.25     3.01   1.79666  1.0620
 0.25000    5.25     3.01   1.79745  1.0623
 0.20000    5.26     3.01   1.79888  1.0629
 0.15000    5.26     3.00   1.79938  1.0637
 0.10000    5.26     3.01   1.79990  1.0645
 0.05000    5.26     3.01   1.80072  1.0638
-0.00000    5.27     3.01   1.80098  1.0639
