 Field[T] Tsmpl[K] Tcntr[K] Signal   Mirror[MM]
 0.00000    5.04     2.96   0.74965  1.0655
 0.05000    5.03     2.96   0.74957  1.0654
 0.10000    5.02     2.97   0.74840  1.0649
 0.15000    5.01     2.96   0.74779  1.0647
 0.20000    5.00     2.95   0.74745  1.0647
 0.25000    4.99     2.95   0.74701  1.0644
 0.30000    4.98     2.96   0.74644  1.0638
 0.35000    4.97     2.97   0.74615  1.0635
 0.40000    4.96     2.96   0.74628  1.0636
 0.45000    4.95     2.97   0.74529  1.0632
 0.50000    4.95     2.96   0.74511  1.0625
 0.55000    4.95     2.96   0.74421  1.0623
 0.60000    4.95     2.97   0.74366  1.0621
 0.65000    4.95     2.96   0.74301  1.0619
 0.70000    4.94     2.96   0.74241  1.0618
 0.75000    4.94     2.97   0.74226  1.0616
 0.80000    4.94     2.97   0.74084  1.0615
 0.85000    4.94     2.96   0.73980  1.0612
 0.90000    4.93     2.94   0.73899  1.0610
 0.95000    4.93     2.96   0.73798  1.0608
 1.00000    4.93     2.95   0.73668  1.0609
 1.05000    4.92     2.95   0.73555  1.0608
 1.10000    4.92     2.96   0.73361  1.0607
 1.15000    4.91     2.96   0.73128  1.0606
 1.20000    4.92     2.96   0.72841  1.0602
 1.25000    4.92     2.97   0.72469  1.0598
 1.30000    4.92     2.96   0.72064  1.0591
 1.35000    4.92     2.96   0.71729  1.0575
 1.40000    4.92     2.96   0.71734  1.0559
 1.45000    4.92     2.96   0.72133  1.0546
 1.50000    4.92     2.97   0.72677  1.0538
 1.55000    4.93     2.97   0.73115  1.0536
 1.60000    4.93     2.95   0.73504  1.0536
 1.65000    4.93     2.96   0.73806  1.0535
 1.70000    4.93     2.97   0.73984  1.0537
 1.75000    4.93     2.97   0.74135  1.0541
 1.80000    4.93     2.98   0.74289  1.0543
 1.85000    4.93     2.98   0.74365  1.0546
 1.90000    4.93     2.98   0.74425  1.0548
 1.95000    4.93     2.99   0.74465  1.0549
 2.00000    4.93     2.99   0.74506  1.0552
 2.05000    4.93     3.00   0.74558  1.0552
 2.10000    4.94     2.99   0.74524  1.0552
 2.15000    4.93     2.99   0.74500  1.0553
 2.20000    4.94     3.00   0.74503  1.0553
 2.25000    4.94     2.99   0.74479  1.0553
 2.30000    4.94     2.99   0.74483  1.0554
 2.35000    4.95     2.99   0.74479  1.0556
 2.40000    4.95     2.99   0.74507  1.0555
 2.45000    4.95     3.00   0.74495  1.0555
 2.50000    4.94     3.00   0.74502  1.0558
 2.55000    4.94     3.01   0.74534  1.0557
 2.60000    4.94     3.00   0.74515  1.0558
 2.65000    4.93     3.00   0.74502  1.0559
 2.70000    4.94     3.00   0.74535  1.0559
 2.75000    4.94     3.01   0.74504  1.0562
 2.80000    4.94     3.00   0.74527  1.0563
 2.85000    4.94     3.01   0.74469  1.0562
 2.90000    4.94     3.02   0.74475  1.0561
 2.95000    4.95     3.02   0.74454  1.0563
 3.00000    4.95     3.02   0.74446  1.0564
 3.00000    4.95     3.02   0.74456  1.0565
 2.95000    4.95     3.02   0.74452  1.0564
 2.90000    4.96     3.03   0.74473  1.0564
 2.85000    4.97     3.02   0.74447  1.0563
 2.80000    4.98     3.03   0.74507  1.0563
 2.75000    5.00     3.04   0.74497  1.0562
 2.70000    5.02     3.05   0.74502  1.0561
 2.65000    5.04     3.05   0.74483  1.0560
 2.60000    5.06     3.05   0.74475  1.0560
 2.55000    5.08     3.06   0.74483  1.0559
 2.50000    5.10     3.05   0.74498  1.0560
 2.45000    5.11     3.06   0.74468  1.0560
 2.40000    5.12     3.06   0.74459  1.0560
 2.35000    5.14     3.07   0.74414  1.0558
 2.30000    5.15     3.07   0.74424  1.0558
 2.25000    5.16     3.06   0.74437  1.0559
 2.20000    5.16     3.06   0.74454  1.0558
 2.15000    5.17     3.05   0.74403  1.0554
 2.10000    5.17     3.06   0.74444  1.0553
 2.05000    5.17     3.05   0.74419  1.0558
 2.00000    5.18     3.05   0.74437  1.0554
 1.95000    5.18     3.05   0.74419  1.0553
 1.90000    5.18     3.05   0.74346  1.0550
 1.85000    5.19     3.05   0.74301  1.0549
 1.80000    5.20     3.05   0.74213  1.0546
 1.75000    5.20     3.04   0.74069  1.0543
 1.70000    5.20     3.04   0.73921  1.0541
 1.65000    5.21     3.04   0.73705  1.0539
 1.60000    5.21     3.03   0.73371  1.0539
 1.55000    5.22     3.03   0.72974  1.0540
 1.50000    5.22     3.04   0.72526  1.0543
 1.45000    5.23     3.03   0.72097  1.0550
 1.40000    5.24     3.02   0.71667  1.0565
 1.35000    5.24     3.03   0.71603  1.0579
 1.30000    5.25     3.03   0.71872  1.0592
 1.25000    5.25     3.02   0.72278  1.0599
 1.20000    5.26     3.02   0.72630  1.0603
 1.15000    5.27     3.02   0.72913  1.0605
 1.10000    5.28     3.02   0.73134  1.0607
 1.05000    5.29     3.02   0.73284  1.0607
 1.00000    5.29     3.01   0.73413  1.0609
 0.95000    5.29     3.00   0.73517  1.0612
 0.90000    5.29     3.01   0.73605  1.0613
 0.85000    5.30     3.02   0.73703  1.0615
 0.80000    5.29     3.01   0.73780  1.0618
 0.75000    5.29     3.01   0.73801  1.0619
 0.70000    5.28     3.01   0.73882  1.0618
 0.65000    5.28     3.00   0.73953  1.0619
 0.60000    5.26     3.00   0.73988  1.0621
 0.55000    5.26     3.00   0.74074  1.0622
 0.50000    5.24     3.01   0.74124  1.0625
 0.45000    5.23     3.01   0.74195  1.0628
 0.40000    5.22     3.00   0.74215  1.0632
 0.35000    5.21     3.00   0.74193  1.0635
 0.30000    5.20     2.99   0.74218  1.0637
 0.25000    5.19     3.00   0.74223  1.0639
 0.20000    5.18     3.00   0.74238  1.0643
 0.15000    5.18     3.00   0.74247  1.0645
 0.10000    5.18     2.99   0.74283  1.0648
 0.05000    5.17     3.01   0.74266  1.0649
-0.00000    5.17     2.99   0.74318  1.0652
