 Field[T] Tsmpl[K] Tcntr[K] SignalIntensity
 7.00000    1.87     1.87   0.17264
 6.95000    1.87     1.87   0.17150
 6.90000    1.87     1.87   0.17108
 6.85000    1.87     1.87   0.17150
 6.80000    1.87     1.87   0.17147
 6.75000    1.87     1.87   0.17098
 6.70000    1.87     1.87   0.17059
 6.65000    1.87     1.87   0.17068
 6.60000    1.87     1.87   0.17025
 6.55000    1.87     1.87   0.16990
 6.50000    1.87     1.87   0.17074
 6.45000    1.87     1.87   0.17093
 6.40000    1.87     1.87   0.17045
 6.35000    1.87     1.87   0.17017
 6.30000    1.87     1.87   0.17051
 6.25000    1.87     1.87   0.17020
 6.20000    1.87     1.87   0.16992
 6.15000    1.87     1.87   0.17086
 6.10000    1.87     1.87   0.17007
 6.05000    1.87     1.87   0.17002
 6.00000    1.87     1.87   0.17032
 5.95000    1.87     1.87   0.17040
 5.90000    1.87     1.87   0.17098
 5.85000    1.87     1.87   0.17023
 5.80000    1.87     1.87   0.17077
 5.75000    1.87     1.87   0.17077
 5.70000    1.87     1.87   0.17063
 5.65000    1.87     1.87   0.17078
 5.60000    1.87     1.87   0.17022
 5.55000    1.87     1.87   0.17071
 5.50000    1.87     1.87   0.17077
 5.45000    1.87     1.87   0.17081
 5.40000    1.87     1.87   0.17109
 5.35000    1.87     1.87   0.17056
 5.30000    1.87     1.87   0.17154
 5.25000    1.87     1.87   0.17115
 5.20000    1.87     1.87   0.17102
 5.15000    1.87     1.87   0.17108
 5.10000    1.87     1.87   0.17184
 5.05000    1.87     1.87   0.17188
 5.00000    1.87     1.87   0.17126
 4.95000    1.87     1.87   0.17209
 4.90000    1.87     1.87   0.17222
 4.85000    1.87     1.87   0.17211
 4.80000    1.87     1.87   0.17288
 4.75000    1.87     1.87   0.17219
 4.70000    1.87     1.87   0.17319
 4.65000    1.87     1.87   0.17251
 4.60000    1.87     1.87   0.17386
 4.55000    1.87     1.87   0.17377
 4.50000    1.87     1.87   0.17448
 4.45000    1.87     1.87   0.17459
 4.40000    1.87     1.87   0.17545
 4.35000    1.87     1.87   0.17545
 4.30000    1.87     1.87   0.17587
 4.25000    1.87     1.87   0.17627
 4.20000    1.87     1.87   0.17609
 4.15000    1.87     1.87   0.17682
 4.10000    1.87     1.87   0.17695
 4.05000    1.87     1.87   0.17674
 4.00000    1.87     1.87   0.17706
 3.95000    1.87     1.87   0.17686
 3.90000    1.87     1.87   0.17658
 3.85000    1.87     1.87   0.17666
 3.80000    1.87     1.87   0.17676
 3.75000    1.87     1.87   0.17661
 3.70000    1.87     1.87   0.17648
 3.65000    1.87     1.87   0.17666
 3.60000    1.87     1.87   0.17648
 3.55000    1.87     1.87   0.17689
 3.50000    1.87     1.87   0.17643
 3.45000    1.87     1.87   0.17735
 3.40000    1.87     1.87   0.17704
 3.35000    1.87     1.87   0.17645
 3.30000    1.87     1.87   0.17651
 3.25000    1.87     1.87   0.17688
 3.20000    1.87     1.87   0.17706
 3.15000    1.87     1.87   0.17680
 3.10000    1.87     1.87   0.17716
 3.05000    1.87     1.87   0.17734
 3.00000    1.87     1.87   0.17743
 2.95000    1.87     1.87   0.17792
 2.90000    1.87     1.87   0.17826
 2.85000    1.87     1.87   0.17890
 2.80000    1.87     1.87   0.17914
 2.75000    1.87     1.87   0.18037
 2.70000    1.87     1.87   0.18205
 2.65000    1.87     1.87   0.18306
 2.60000    1.87     1.87   0.18467
 2.55000    1.87     1.87   0.18564
 2.50000    1.87     1.87   0.18764
 2.45000    1.87     1.87   0.18834
 2.40000    1.87     1.87   0.19022
 2.35000    1.87     1.87   0.19101
 2.30000    1.87     1.87   0.19221
 2.25000    1.87     1.87   0.19347
 2.20000    1.87     1.87   0.19371
 2.15000    1.87     1.87   0.19413
 2.10000    1.87     1.87   0.19472
 2.05000    1.87     1.87   0.19454
 2.00000    1.87     1.87   0.19419
 1.95000    1.87     1.87   0.19187
 1.90000    1.87     1.87   0.19145
 1.85000    1.87     1.87   0.19086
 1.80000    1.87     1.87   0.18889
 1.75000    1.87     1.87   0.18506
 1.70000    1.87     1.87   0.17972
 1.65000    1.87     1.87   0.17749
 1.60000    1.87     1.87   0.17533
 1.55000    1.87     1.87   0.17303
 1.50000    1.87     1.87   0.17218
 1.45000    1.87     1.87   0.17274
 1.40000    1.87     1.87   0.17321
 1.35000    1.87     1.87   0.17274
 1.30000    1.87     1.87   0.17254
 1.25000    1.87     1.87   0.17260
 1.20000    1.87     1.87   0.17356
 1.15000    1.87     1.87   0.17300
 1.10000    1.87     1.87   0.17332
 1.05000    1.87     1.87   0.17399
 1.00000    1.87     1.87   0.17545
 0.95000    1.87     1.87   0.17672
 0.90000    1.87     1.87   0.17700
 0.85000    1.87     1.87   0.17744
 0.80000    1.87     1.87   0.17817
 0.75000    1.87     1.87   0.17792
 0.70000    1.87     1.87   0.17872
 0.65000    1.87     1.87   0.17927
 0.60000    1.87     1.87   0.17999
 0.55000    1.87     1.87   0.18045
 0.50000    1.87     1.87   0.18103
 0.45000    1.87     1.87   0.18201
 0.40000    1.87     1.87   0.18241
 0.35000    1.87     1.87   0.18317
 0.30000    1.87     1.87   0.18335
 0.25000    1.87     1.87   0.18298
 0.20000    1.87     1.87   0.18280
 0.15000    1.87     1.87   0.18302
 0.10000    1.87     1.87   0.18296
 0.05000    1.87     1.87   0.18357
 -0.00000    1.87     1.87   0.18308
