 Field[T] Tsmpl[K] Tcntr[K] SignalIntensity
 7.00000    1.86     1.86   0.32996
 6.95000    1.86     1.86   0.32871
 6.90000    1.86     1.86   0.32867
 6.85000    1.86     1.86   0.32760
 6.80000    1.86     1.86   0.32767
 6.75000    1.86     1.86   0.32848
 6.70000    1.86     1.86   0.32789
 6.65000    1.86     1.86   0.32775
 6.60000    1.86     1.86   0.32693
 6.55000    1.86     1.86   0.32638
 6.50000    1.86     1.86   0.32609
 6.45000    1.86     1.86   0.32620
 6.40000    1.86     1.86   0.32594
 6.35000    1.86     1.86   0.32505
 6.30000    1.86     1.86   0.32502
 6.25000    1.86     1.86   0.32454
 6.20000    1.86     1.86   0.32413
 6.15000    1.86     1.86   0.32339
 6.10000    1.86     1.86   0.32310
 6.05000    1.86     1.86   0.32310
 6.00000    1.86     1.86   0.32073
 5.95000    1.86     1.86   0.32044
 5.90000    1.86     1.86   0.32026
 5.85000    1.86     1.86   0.31896
 5.80000    1.86     1.86   0.31823
 5.75000    1.86     1.86   0.31867
 5.70000    1.86     1.86   0.31664
 5.65000    1.86     1.86   0.31782
 5.60000    1.86     1.86   0.31671
 5.55000    1.86     1.86   0.31653
 5.50000    1.86     1.86   0.31557
 5.45000    1.86     1.86   0.31575
 5.40000    1.86     1.86   0.31435
 5.35000    1.86     1.86   0.31431
 5.30000    1.86     1.86   0.31380
 5.25000    1.86     1.86   0.31188
 5.20000    1.86     1.86   0.31306
 5.15000    1.86     1.86   0.31155
 5.10000    1.86     1.86   0.31088
 5.05000    1.86     1.86   0.30941
 5.00000    1.86     1.86   0.30944
 4.95000    1.86     1.86   0.30856
 4.90000    1.86     1.86   0.30686
 4.85000    1.86     1.86   0.30627
 4.80000    1.86     1.86   0.30520
 4.75000    1.86     1.86   0.30402
 4.70000    1.86     1.86   0.30402
 4.65000    1.86     1.86   0.30173
 4.60000    1.86     1.86   0.30110
 4.55000    1.86     1.86   0.29911
 4.50000    1.86     1.86   0.29841
 4.45000    1.86     1.86   0.29778
 4.40000    1.86     1.86   0.29575
 4.35000    1.86     1.86   0.29527
 4.30000    1.86     1.86   0.29446
 4.25000    1.86     1.86   0.29347
 4.20000    1.86     1.86   0.29324
 4.15000    1.86     1.86   0.29062
 4.10000    1.86     1.86   0.29051
 4.05000    1.86     1.86   0.29000
 4.00000    1.86     1.86   0.28601
 3.95000    1.86     1.86   0.28760
 3.90000    1.86     1.86   0.28531
 3.85000    1.86     1.86   0.28601
 3.80000    1.86     1.86   0.28524
 3.75000    1.86     1.86   0.28302
 3.70000    1.86     1.86   0.28291
 3.65000    1.86     1.86   0.28343
 3.60000    1.86     1.86   0.28147
 3.55000    1.86     1.86   0.28195
 3.50000    1.86     1.86   0.28092
 3.45000    1.86     1.86   0.28192
 3.40000    1.86     1.86   0.28066
 3.35000    1.86     1.86   0.28217
 3.30000    1.86     1.86   0.28269
 3.25000    1.86     1.86   0.28210
 3.20000    1.86     1.86   0.28118
 3.15000    1.86     1.86   0.28247
 3.10000    1.86     1.86   0.28317
 3.05000    1.86     1.86   0.28295
 3.00000    1.86     1.86   0.28461
 2.95000    1.86     1.86   0.28332
 2.90000    1.86     1.86   0.28284
 2.85000    1.86     1.86   0.28324
 2.80000    1.86     1.86   0.28317
 2.75000    1.86     1.86   0.28324
 2.70000    1.86     1.86   0.28457
 2.65000    1.86     1.86   0.28295
 2.60000    1.86     1.86   0.28284
 2.55000    1.86     1.86   0.28221
 2.50000    1.86     1.86   0.28099
 2.45000    1.86     1.86   0.28136
 2.40000    1.86     1.86   0.28096
 2.35000    1.86     1.86   0.27782
 2.30000    1.86     1.86   0.27793
 2.25000    1.86     1.86   0.27697
 2.20000    1.86     1.86   0.27620
 2.15000    1.86     1.86   0.27789
 2.10000    1.86     1.86   0.27538
 2.05000    1.86     1.86   0.27808
 2.00000    1.86     1.86   0.27764
 1.95000    1.86     1.86   0.27826
 1.90000    1.86     1.86   0.28077
 1.85000    1.86     1.86   0.28395
 1.80000    1.86     1.86   0.28568
 1.75000    1.86     1.86   0.28967
 1.70000    1.86     1.86   0.29181
 1.65000    1.86     1.86   0.29686
 1.60000    1.86     1.86   0.30062
 1.55000    1.86     1.86   0.30413
 1.50000    1.86     1.86   0.31003
 1.45000    1.86     1.86   0.31454
 1.40000    1.86     1.86   0.31992
 1.35000    1.86     1.86   0.32542
 1.30000    1.86     1.86   0.32808
 1.25000    1.86     1.86   0.32775
 1.20000    1.86     1.86   0.32605
 1.15000    1.86     1.86   0.32597
 1.10000    1.86     1.86   0.32446
 1.05000    1.86     1.86   0.32472
 1.00000    1.86     1.86   0.32793
 0.95000    1.86     1.86   0.32856
 0.90000    1.86     1.86   0.33158
 0.85000    1.86     1.86   0.33236
 0.80000    1.86     1.86   0.33343
 0.75000    1.86     1.86   0.33203
 0.70000    1.86     1.86   0.33413
 0.65000    1.86     1.86   0.33572
 0.60000    1.86     1.86   0.33620
 0.55000    1.86     1.86   0.33623
 0.50000    1.86     1.86   0.33719
 0.45000    1.86     1.86   0.33893
 0.40000    1.86     1.86   0.33941
 0.35000    1.86     1.86   0.34022
 0.30000    1.86     1.86   0.34169
 0.25000    1.86     1.86   0.34232
 0.20000    1.86     1.86   0.34258
 0.15000    1.86     1.86   0.34118
 0.10000    1.86     1.86   0.34287
 0.05000    1.86     1.86   0.34217
 -0.00000    1.86     1.86   0.34350
