 Field[T] Tsmpl[K] Tcntr[K] SignalIntensity
 0.00000    1.86     1.86   0.35991
 0.05000    1.86     1.86   0.35925
 0.10000    1.86     1.86   0.35807
 0.15000    1.86     1.86   0.35846
 0.20000    1.86     1.86   0.35714
 0.25000    1.86     1.86   0.35819
 0.30000    1.86     1.86   0.35840
 0.35000    1.86     1.86   0.35957
 0.40000    1.86     1.86   0.35921
 0.45000    1.86     1.86   0.35972
 0.50000    1.86     1.86   0.36080
 0.55000    1.86     1.86   0.36167
 0.60000    1.86     1.86   0.36289
 0.65000    1.86     1.86   0.36296
 0.70000    1.86     1.86   0.36321
 0.75000    1.86     1.86   0.36440
 0.80000    1.86     1.86   0.36262
 0.85000    1.86     1.86   0.36270
 0.90000    1.86     1.86   0.36190
 0.95000    1.86     1.86   0.36214
 1.00000    1.86     1.86   0.36185
 1.05000    1.86     1.86   0.36165
 1.10000    1.86     1.86   0.36161
 1.15000    1.86     1.86   0.36260
 1.20000    1.86     1.86   0.36257
 1.25000    1.86     1.86   0.36333
 1.30000    1.86     1.86   0.36409
 1.35000    1.86     1.86   0.36474
 1.40000    1.86     1.86   0.36367
 1.45000    1.86     1.86   0.36379
 1.50000    1.86     1.86   0.36332
 1.55000    1.86     1.86   0.36361
 1.60000    1.86     1.86   0.36439
 1.65000    1.86     1.86   0.36572
 1.70000    1.86     1.86   0.36545
 1.75000    1.86     1.86   0.36533
 1.80000    1.86     1.86   0.36627
 1.85000    1.86     1.86   0.36521
 1.90000    1.86     1.86   0.36430
 1.95000    1.86     1.86   0.36101
 2.00000    1.86     1.86   0.35723
 2.05000    1.86     1.86   0.35457
 2.10000    1.86     1.86   0.35156
 2.15000    1.86     1.86   0.34869
 2.20000    1.86     1.86   0.34597
 2.25000    1.86     1.86   0.34271
 2.30000    1.86     1.86   0.33998
 2.35000    1.86     1.86   0.33636
 2.40000    1.86     1.86   0.33358
 2.45000    1.86     1.86   0.33029
 2.50000    1.86     1.86   0.32702
 2.55000    1.86     1.86   0.32463
 2.60000    1.86     1.86   0.32152
 2.65000    1.86     1.86   0.32012
 2.70000    1.86     1.86   0.31789
 2.75000    1.86     1.86   0.31641
 2.80000    1.86     1.86   0.31581
 2.85000    1.86     1.86   0.31439
 2.90000    1.86     1.86   0.31452
 2.95000    1.86     1.86   0.31379
 3.00000    1.86     1.86   0.31325
 3.05000    1.86     1.86   0.31319
 3.10000    1.86     1.86   0.31292
 3.15000    1.86     1.86   0.31325
 3.20000    1.86     1.86   0.31347
 3.25000    1.86     1.86   0.31286
 3.30000    1.86     1.86   0.31327
 3.35000    1.86     1.86   0.31333
 3.40000    1.86     1.86   0.31296
 3.45000    1.86     1.86   0.31252
 3.50000    1.86     1.86   0.31205
 3.55000    1.86     1.86   0.31099
 3.60000    1.86     1.86   0.31101
 3.65000    1.86     1.86   0.31102
 3.70000    1.86     1.86   0.31021
 3.75000    1.86     1.86   0.31002
 3.80000    1.86     1.86   0.30940
 3.85000    1.86     1.86   0.30766
 3.90000    1.86     1.86   0.30669
 3.95000    1.86     1.86   0.30538
 4.00000    1.86     1.86   0.30468
 4.05000    1.86     1.86   0.30296
 4.10000    1.86     1.86   0.30192
 4.15000    1.86     1.86   0.30097
 4.20000    1.86     1.86   0.29980
 4.25000    1.86     1.86   0.29880
 4.30000    1.86     1.86   0.29726
 4.35000    1.86     1.86   0.29655
 4.40000    1.86     1.86   0.29569
 4.45000    1.86     1.86   0.29490
 4.50000    1.86     1.86   0.29408
 4.55000    1.86     1.86   0.29331
 4.60000    1.86     1.86   0.29295
 4.65000    1.86     1.86   0.29252
 4.70000    1.86     1.86   0.29120
 4.75000    1.86     1.86   0.29132
 4.80000    1.86     1.86   0.29110
 4.85000    1.86     1.86   0.29008
 4.90000    1.86     1.86   0.29028
 4.95000    1.86     1.86   0.28957
 5.00000    1.86     1.86   0.28957
 5.05000    1.86     1.86   0.29008
 5.10000    1.86     1.86   0.28951
 5.15000    1.86     1.86   0.28932
 5.20000    1.86     1.86   0.28976
 5.25000    1.86     1.86   0.28896
 5.30000    1.86     1.86   0.28967
 5.35000    1.86     1.86   0.28929
 5.40000    1.86     1.86   0.29032
 5.45000    1.86     1.86   0.29079
 5.50000    1.86     1.86   0.29066
 5.55000    1.86     1.86   0.29116
 5.60000    1.86     1.86   0.29133
 5.65000    1.86     1.86   0.29161
 5.70000    1.86     1.86   0.29169
 5.75000    1.86     1.86   0.29173
 5.80000    1.86     1.86   0.29217
 5.85000    1.86     1.86   0.29254
 5.90000    1.86     1.86   0.29233
 5.95000    1.86     1.86   0.29260
 6.00000    1.86     1.86   0.29329
 6.05000    1.86     1.86   0.29409
 6.10000    1.86     1.86   0.29449
 6.15000    1.86     1.86   0.29494
 6.20000    1.86     1.86   0.29592
 6.25000    1.86     1.86   0.29601
 6.30000    1.86     1.86   0.29701
 6.35000    1.86     1.86   0.29700
 6.40000    1.86     1.86   0.29798
 6.45000    1.86     1.86   0.29842
 6.50000    1.86     1.86   0.29875
 6.55000    1.86     1.86   0.29917
 6.60000    1.86     1.86   0.29987
 6.65000    1.86     1.86   0.30049
 6.70000    1.86     1.86   0.30101
 6.75000    1.86     1.86   0.30122
 6.80000    1.86     1.86   0.30192
 6.85000    1.86     1.86   0.30270
 6.90000    1.86     1.86   0.30302
 6.95000    1.86     1.86   0.30370
 7.00000    1.86     1.86   0.30485
