 Field[T] Tsmpl[K] Tcntr[K] SignalIntensity   Mirror[MM]
 0.00000    1.88     1.88   0.71622  -3.6160
 0.05000    1.88     1.88   0.71587  -3.6155
 0.10000    1.88     1.88   0.71687  -3.6155
 0.15000    1.88     1.88   0.71774  -3.6155
 0.20000    1.88     1.88   0.71716  -3.6155
 0.25000    1.88     1.88   0.71753  -3.6155
 0.30000    1.88     1.88   0.71857  -3.6155
 0.35000    1.88     1.88   0.71873  -3.6155
 0.40000    1.88     1.88   0.71964  -3.6150
 0.45000    1.88     1.88   0.72006  -3.6150
 0.50000    1.88     1.88   0.72047  -3.6150
 0.55000    1.88     1.88   0.72109  -3.6150
 0.60000    1.88     1.88   0.72200  -3.6150
 0.65000    1.88     1.88   0.72235  -3.6150
 0.70000    1.88     1.88   0.72235  -3.6150
 0.75000    1.88     1.88   0.72380  -3.6150
 0.80000    1.88     1.88   0.72341  -3.6150
 0.85000    1.88     1.88   0.72413  -3.6150
 0.90000    1.88     1.88   0.72392  -3.6150
 0.95000    1.88     1.88   0.72491  -3.6150
 1.00000    1.88     1.88   0.72545  -3.6150
 1.05000    1.88     1.88   0.72541  -3.6150
 1.10000    1.88     1.88   0.72632  -3.6150
 1.15000    1.88     1.88   0.72708  -3.6150
 1.20000    1.88     1.88   0.72807  -3.6150
 1.25000    1.88     1.88   0.72841  -3.6146
 1.30000    1.88     1.88   0.72880  -3.6145
 1.35000    1.88     1.88   0.72924  -3.6141
 1.40000    1.88     1.88   0.72942  -3.6140
 1.45000    1.88     1.88   0.73029  -3.6140
 1.50000    1.88     1.88   0.73000  -3.6140
 1.55000    1.88     1.88   0.73146  -3.6140
 1.60000    1.88     1.88   0.73121  -3.6135
 1.65000    1.88     1.88   0.73180  -3.6135
 1.70000    1.88     1.88   0.73166  -3.6130
 1.75000    1.88     1.88   0.73260  -3.6130
 1.80000    1.88     1.88   0.73381  -3.6125
 1.85000    1.88     1.88   0.73473  -3.6125
 1.90000    1.88     1.88   0.73531  -3.6125
 1.95000    1.88     1.88   0.73551  -3.6125
 2.00000    1.88     1.88   0.73690  -3.6120
 2.05000    1.88     1.88   0.73619  -3.6115
 2.10000    1.88     1.88   0.73766  -3.6115
 2.15000    1.88     1.88   0.73762  -3.6115
 2.20000    1.88     1.88   0.73833  -3.6110
 2.25000    1.88     1.88   0.73891  -3.6105
 2.30000    1.88     1.88   0.73825  -3.6105
 2.35000    1.88     1.88   0.73933  -3.6105
 2.40000    1.88     1.88   0.73903  -3.6105
 2.45000    1.88     1.88   0.73950  -3.6102
 2.50000    1.88     1.88   0.74093  -3.6100
 2.55000    1.88     1.88   0.74086  -3.6100
 2.60000    1.88     1.88   0.74090  -3.6095
 2.65000    1.88     1.88   0.74198  -3.6091
 2.70000    1.88     1.88   0.74215  -3.6090
 2.75000    1.88     1.88   0.74237  -3.6090
 2.80000    1.88     1.88   0.74270  -3.6080
 2.85000    1.88     1.88   0.74168  -3.6080
 2.90000    1.88     1.88   0.74341  -3.6075
 2.95000    1.88     1.88   0.74319  -3.6075
 3.00000    1.88     1.88   0.74290  -3.6075
 3.05000    1.88     1.88   0.74418  -3.6070
 3.10000    1.88     1.88   0.74447  -3.6065
 3.15000    1.88     1.88   0.74522  -3.6065
 3.20000    1.88     1.88   0.74518  -3.6065
 3.25000    1.88     1.88   0.74510  -3.6061
 3.30000    1.88     1.88   0.74477  -3.6060
 3.35000    1.88     1.88   0.74422  -3.6055
 3.40000    1.88     1.88   0.74459  -3.6050
 3.45000    1.88     1.88   0.74455  -3.6050
 3.50000    1.88     1.88   0.74540  -3.6045
 3.55000    1.88     1.88   0.74492  -3.6040
 3.60000    1.88     1.88   0.74433  -3.6037
 3.65000    1.88     1.88   0.74477  -3.6035
 3.70000    1.88     1.88   0.74492  -3.6030
 3.75000    1.88     1.88   0.74599  -3.6030
 3.80000    1.88     1.88   0.74551  -3.6025
 3.85000    1.88     1.88   0.74624  -3.6020
 3.90000    1.88     1.88   0.74725  -3.6020
 3.95000    1.88     1.88   0.74747  -3.6015
 4.00000    1.88     1.88   0.74750  -3.6010
 4.05000    1.88     1.88   0.74835  -3.6010
 4.10000    1.88     1.88   0.74758  -3.6005
 4.15000    1.88     1.88   0.74788  -3.6000
 4.20000    1.88     1.88   0.74792  -3.5990
 4.25000    1.88     1.88   0.74699  -3.5990
 4.30000    1.88     1.88   0.74620  -3.5985
 4.35000    1.88     1.88   0.74569  -3.5975
 4.40000    1.88     1.88   0.74496  -3.5970
 4.45000    1.88     1.88   0.74296  -3.5965
 4.50000    1.88     1.88   0.74219  -3.5960
 4.55000    1.88     1.88   0.73909  -3.5955
 4.60000    1.88     1.88   0.73744  -3.5951
 4.65000    1.88     1.88   0.73586  -3.5945
 4.70000    1.88     1.88   0.73342  -3.5940
 4.75000    1.88     1.88   0.72967  -3.5935
 4.80000    1.88     1.88   0.72708  -3.5930
 4.85000    1.88     1.88   0.72396  -3.5926
 4.90000    1.88     1.88   0.72192  -3.5925
 4.95000    1.88     1.88   0.71853  -3.5920
 5.00000    1.88     1.88   0.71571  -3.5918
 5.05000    1.88     1.88   0.71200  -3.5910
 5.10000    1.88     1.88   0.70907  -3.5910
 5.15000    1.88     1.88   0.70570  -3.5910
 5.20000    1.88     1.88   0.70225  -3.5905
 5.25000    1.88     1.88   0.69916  -3.5901
 5.30000    1.88     1.88   0.69435  -3.5900
 5.35000    1.88     1.88   0.69154  -3.5898
 5.40000    1.88     1.88   0.68798  -3.5890
 5.45000    1.88     1.88   0.68392  -3.5890
 5.50000    1.88     1.88   0.68073  -3.5890
 5.55000    1.88     1.88   0.67523  -3.5885
 5.60000    1.88     1.88   0.67173  -3.5885
 5.65000    1.88     1.88   0.66710  -3.5885
 5.70000    1.88     1.88   0.66351  -3.5880
 5.75000    1.88     1.88   0.65966  -3.5880
 5.80000    1.88     1.88   0.65507  -3.5880
 5.85000    1.88     1.88   0.65137  -3.5880
 5.90000    1.88     1.88   0.64687  -3.5880
 5.95000    1.88     1.88   0.64253  -3.5880
 6.00000    1.88     1.88   0.63838  -3.5880
 6.05000    1.88     1.88   0.63311  -3.5880
 6.10000    1.88     1.88   0.62931  -3.5885
 6.15000    1.88     1.88   0.62571  -3.5885
 6.20000    1.88     1.88   0.62098  -3.5885
 6.25000    1.88     1.88   0.61775  -3.5885
 6.30000    1.88     1.88   0.61349  -3.5890
 6.35000    1.88     1.88   0.61058  -3.5895
 6.40000    1.88     1.88   0.60690  -3.5897
 6.45000    1.88     1.88   0.60418  -3.5903
 6.50000    1.88     1.88   0.60075  -3.5910
 6.55000    1.88     1.88   0.59791  -3.5915
 6.60000    1.88     1.88   0.59590  -3.5920
 6.65000    1.88     1.88   0.59421  -3.5925
 6.70000    1.88     1.88   0.59207  -3.5930
 6.75000    1.88     1.88   0.59049  -3.5935
 6.80000    1.88     1.88   0.58820  -3.5940
 6.85000    1.88     1.88   0.58744  -3.5940
 6.90000    1.88     1.88   0.58580  -3.5945
 6.95000    1.88     1.88   0.58613  -3.5950
 7.00000    1.88     1.88   0.58514  -3.5950
 7.00000    1.88     1.88   0.58472  -3.5955
 6.95000    1.88     1.88   0.58488  -3.5955
 6.90000    1.88     1.88   0.58715  -3.5955
 6.85000    1.88     1.88   0.58750  -3.5950
 6.80000    1.88     1.88   0.58876  -3.5941
 6.75000    1.88     1.88   0.59059  -3.5935
 6.70000    1.88     1.88   0.59217  -3.5930
 6.65000    1.88     1.88   0.59331  -3.5925
 6.60000    1.88     1.88   0.59586  -3.5919
 6.55000    1.88     1.88   0.59900  -3.5915
 6.50000    1.88     1.88   0.60078  -3.5910
 6.45000    1.88     1.88   0.60344  -3.5905
 6.40000    1.88     1.88   0.60727  -3.5900
 6.35000    1.88     1.88   0.60960  -3.5900
 6.30000    1.88     1.88   0.61302  -3.5895
 6.25000    1.88     1.88   0.61660  -3.5890
 6.20000    1.88     1.88   0.62143  -3.5890
 6.15000    1.88     1.88   0.62486  -3.5885
 6.10000    1.88     1.88   0.62916  -3.5885
 6.05000    1.88     1.88   0.63355  -3.5885
 6.00000    1.88     1.88   0.63818  -3.5885
 5.95000    1.88     1.88   0.64150  -3.5880
 5.90000    1.88     1.88   0.64632  -3.5880
 5.85000    1.88     1.88   0.65061  -3.5880
 5.80000    1.88     1.88   0.65546  -3.5880
 5.75000    1.88     1.88   0.65969  -3.5880
 5.70000    1.88     1.88   0.66351  -3.5880
 5.65000    1.88     1.88   0.66787  -3.5880
 5.60000    1.88     1.88   0.67250  -3.5880
 5.55000    1.88     1.88   0.67594  -3.5880
 5.50000    1.88     1.88   0.68009  -3.5880
 5.45000    1.88     1.88   0.68465  -3.5885
 5.40000    1.88     1.88   0.68792  -3.5885
 5.35000    1.88     1.88   0.69252  -3.5890
 5.30000    1.88     1.88   0.69516  -3.5895
 5.25000    1.88     1.88   0.69931  -3.5895
 5.20000    1.88     1.88   0.70296  -3.5900
 5.15000    1.88     1.88   0.70518  -3.5900
 5.10000    1.88     1.88   0.71026  -3.5905
 5.05000    1.88     1.88   0.71257  -3.5910
 5.00000    1.88     1.88   0.71651  -3.5910
 4.95000    1.88     1.88   0.71952  -3.5915
 4.90000    1.88     1.88   0.72250  -3.5925
 4.85000    1.88     1.88   0.72475  -3.5925
 4.80000    1.88     1.88   0.72753  -3.5930
 4.75000    1.88     1.88   0.73045  -3.5935
 4.70000    1.88     1.88   0.73400  -3.5940
 4.65000    1.88     1.88   0.73586  -3.5945
 4.60000    1.88     1.88   0.73748  -3.5950
 4.55000    1.88     1.88   0.73997  -3.5950
 4.50000    1.88     1.88   0.74194  -3.5960
 4.45000    1.88     1.88   0.74392  -3.5965
 4.40000    1.88     1.88   0.74544  -3.5970
 4.35000    1.88     1.88   0.74573  -3.5975
 4.30000    1.88     1.88   0.74762  -3.5980
 4.25000    1.88     1.88   0.74835  -3.5985
 4.20000    1.88     1.88   0.74861  -3.5990
 4.15000    1.88     1.88   0.74891  -3.5995
 4.10000    1.88     1.88   0.74861  -3.6000
 4.05000    1.88     1.88   0.74750  -3.6005
 4.00000    1.88     1.88   0.74747  -3.6010
 3.95000    1.88     1.88   0.74821  -3.6010
 3.90000    1.88     1.88   0.74784  -3.6015
 3.85000    1.88     1.88   0.74818  -3.6016
 3.80000    1.88     1.88   0.74754  -3.6020
 3.75000    1.88     1.88   0.74717  -3.6020
 3.70000    1.88     1.88   0.74674  -3.6025
 3.65000    1.88     1.88   0.74709  -3.6030
 3.60000    1.88     1.88   0.74636  -3.6030
 3.55000    1.88     1.88   0.74729  -3.6035
 3.50000    1.88     1.88   0.74691  -3.6040
 3.45000    1.88     1.88   0.74595  -3.6040
 3.40000    1.88     1.88   0.74561  -3.6045
 3.35000    1.88     1.88   0.74565  -3.6050
 3.30000    1.88     1.88   0.74599  -3.6050
 3.25000    1.88     1.88   0.74632  -3.6054
 3.20000    1.88     1.88   0.74496  -3.6055
 3.15000    1.88     1.88   0.74510  -3.6057
 3.10000    1.88     1.88   0.74447  -3.6060
 3.05000    1.88     1.88   0.74481  -3.6065
 3.00000    1.88     1.88   0.74337  -3.6065
 2.95000    1.88     1.88   0.74367  -3.6070
 2.90000    1.88     1.88   0.74388  -3.6075
 2.85000    1.88     1.88   0.74245  -3.6075
 2.80000    1.88     1.88   0.74278  -3.6080
 2.75000    1.88     1.88   0.74345  -3.6080
 2.70000    1.88     1.88   0.74256  -3.6085
 2.65000    1.88     1.88   0.74245  -3.6085
 2.60000    1.88     1.88   0.74164  -3.6085
 2.55000    1.88     1.88   0.74101  -3.6085
 2.50000    1.88     1.88   0.74105  -3.6090
 2.45000    1.88     1.88   0.74105  -3.6090
 2.40000    1.88     1.88   0.73954  -3.6090
 2.35000    1.88     1.88   0.74013  -3.6095
 2.30000    1.88     1.88   0.73942  -3.6100
 2.25000    1.88     1.88   0.73766  -3.6100
 2.20000    1.88     1.88   0.73697  -3.6101
 2.15000    1.88     1.88   0.73762  -3.6105
 2.10000    1.88     1.88   0.73711  -3.6110
 2.05000    1.88     1.88   0.73551  -3.6110
 2.00000    1.88     1.88   0.73590  -3.6110
 1.95000    1.88     1.88   0.73473  -3.6110
 1.90000    1.88     1.88   0.73322  -3.6110
 1.85000    1.88     1.88   0.73334  -3.6115
 1.80000    1.88     1.88   0.73246  -3.6115
 1.75000    1.88     1.88   0.73146  -3.6115
 1.70000    1.88     1.88   0.73129  -3.6120
 1.65000    1.88     1.88   0.73104  -3.6125
 1.60000    1.88     1.88   0.73033  -3.6125
 1.55000    1.88     1.88   0.72957  -3.6125
 1.50000    1.88     1.88   0.72862  -3.6125
 1.45000    1.88     1.88   0.72837  -3.6125
 1.40000    1.88     1.88   0.72741  -3.6125
 1.35000    1.88     1.88   0.72800  -3.6125
 1.30000    1.88     1.88   0.72720  -3.6125
 1.25000    1.88     1.88   0.72632  -3.6130
 1.20000    1.88     1.88   0.72530  -3.6130
 1.15000    1.88     1.88   0.72421  -3.6135
 1.10000    1.88     1.88   0.72462  -3.6135
 1.05000    1.88     1.88   0.72312  -3.6135
 1.00000    1.88     1.88   0.72268  -3.6140
 0.95000    1.88     1.88   0.72275  -3.6140
 0.90000    1.88     1.88   0.72287  -3.6140
 0.85000    1.88     1.88   0.72246  -3.6140
 0.80000    1.88     1.88   0.72105  -3.6140
 0.75000    1.88     1.88   0.72018  -3.6140
 0.70000    1.88     1.88   0.72072  -3.6140
 0.65000    1.88     1.88   0.71940  -3.6140
 0.60000    1.88     1.88   0.71956  -3.6140
 0.55000    1.88     1.88   0.71935  -3.6140
 0.50000    1.88     1.88   0.71886  -3.6140
 0.45000    1.88     1.88   0.71811  -3.6140
 0.40000    1.88     1.88   0.71790  -3.6140
 0.35000    1.88     1.88   0.71641  -3.6145
 0.30000    1.88     1.88   0.71629  -3.6145
 0.25000    1.88     1.88   0.71604  -3.6145
 0.20000    1.88     1.88   0.71558  -3.6145
 0.15000    1.88     1.88   0.71485  -3.6145
 0.10000    1.88     1.88   0.71456  -3.6145
 0.05000    1.88     1.88   0.71488  -3.6145
 -0.00000    1.88     1.88   0.71535  -3.6145
