 Field[T] Tsmpl[K] Tcntr[K] Signal RefSignal
 0.00000    4.58     2.98   5.92100   3.54409
 0.05000    4.58     2.98   5.91600   3.54063
 0.10000    4.57     2.97   5.92010   3.54203
 0.15000    4.57     2.97   5.93220   3.54574
 0.20000    4.56     2.97   5.93010   3.54550
 0.25000    4.56     2.98   5.92970   3.54177
 0.30000    4.56     2.99   5.93070   3.54575
 0.35000    4.55     2.97   5.92690   3.54449
 0.40000    4.55     2.97   5.92410   3.54672
 0.45000    4.54     2.97   5.92390   3.54609
 0.50000    4.54     2.97   5.91980   3.54735
 0.55000    4.53     2.98   5.91330   3.54955
 0.60000    4.52     2.96   5.91210   3.54692
 0.65000    4.50     2.96   5.90580   3.54690
 0.70000    4.49     2.95   5.90260   3.54624
 0.75000    4.50     2.95   5.89080   3.54813
 0.80000    4.50     2.94   5.88110   3.54344
 0.85000    4.50     2.94   5.87070   3.54613
 0.90000    4.50     2.93   5.85910   3.54620
 0.95000    4.50     2.93   5.83860   3.54896
 1.00000    4.50     2.93   5.82320   3.54566
 1.05000    4.49     2.94   5.79880   3.54749
 1.10000    4.49     2.93   5.76680   3.54547
 1.15000    4.48     2.92   5.72430   3.54731
 1.20000    4.47     2.94   5.66360   3.54567
 1.25000    4.47     2.91   5.59070   3.54566
 1.30000    4.46     2.93   5.53140   3.54798
 1.35000    4.45     2.92   5.50680   3.54472
 1.40000    4.45     2.90   5.53710   3.54495
 1.45000    4.43     2.93   5.58780   3.54574
 1.50000    4.43     2.91   5.63700   3.54491
 1.55000    4.42     2.92   5.68420   3.54590
 1.60000    4.41     2.93   5.71900   3.54358
 1.65000    4.40     2.93   5.73720   3.54179
 1.70000    4.40     2.94   5.75590   3.54430
 1.75000    4.40     2.94   5.77120   3.54602
 1.80000    4.40     2.94   5.79440   3.54813
 1.85000    4.40     2.95   5.81140   3.54617
 1.90000    4.40     2.95   5.83820   3.54785
 1.95000    4.40     2.95   5.85660   3.54111
 2.00000    4.41     2.93   5.86650   3.54478
 2.05000    4.40     2.95   5.89540   3.54204
 2.10000    4.41     2.96   5.91130   3.54498
 2.15000    4.41     2.95   5.92580   3.54461
 2.20000    4.41     2.95   5.94090   3.54446
 2.25000    4.42     2.97   5.95330   3.54619
 2.30000    4.44     2.97   5.96770   3.54390
 2.35000    4.45     2.98   5.97610   3.54418
 2.40000    4.46     2.96   5.98780   3.54566
 2.45000    4.47     2.99   5.99980   3.54473
 2.50000    4.49     2.97   6.00680   3.54645
 2.55000    4.50     2.98   6.01070   3.54510
 2.60000    4.51     3.00   6.02190   3.54422
 2.65000    4.52     2.98   6.02890   3.54370
 2.70000    4.52     2.99   6.03350   3.54492
 2.75000    4.53     3.01   6.04050   3.54519
 2.80000    4.53     2.99   6.04430   3.54513
 2.85000    4.53     2.99   6.04790   3.54386
 2.90000    4.54     2.99   6.05590   3.54417
 2.95000    4.54     3.00   6.05870   3.54677
 3.00000    4.54     3.00   6.06290   3.54238
 3.05000    4.54     3.00   6.06690   3.54430
 3.10000    4.54     3.03   6.06850   3.54411
 3.15000    4.54     3.01   6.06870   3.54179
 3.20000    4.54     3.02   6.07000   3.54165
 3.25000    4.54     3.03   6.09160   3.54359
 3.30000    4.56     3.03   6.08230   3.54146
 3.35000    4.57     3.03   6.08290   3.54493
 3.40000    4.58     3.03   6.08010   3.54078
 3.45000    4.59     3.04   6.08340   3.54266
 3.50000    4.60     3.05   6.07840   3.54278
 3.55000    4.61     3.03   6.08210   3.54215
 3.60000    4.62     3.04   6.08350   3.54220
 3.65000    4.62     3.04   6.08480   3.54032
 3.70000    4.63     3.05   6.08310   3.54191
 3.75000    4.64     3.05   6.08190   3.53809
 3.80000    4.66     3.06   6.08830   3.54010
 3.85000    4.66     3.04   6.08750   3.53929
 3.90000    4.66     3.03   6.10320   3.54009
 3.95000    4.66     3.03   6.08600   3.53958
 4.00000    4.67     3.03   6.08920   3.53992
 4.00000    4.67     3.02   6.08960   3.54060
 3.95000    4.67     3.04   6.09020   3.53884
 3.90000    4.68     3.01   6.09200   3.54073
 3.85000    4.69     3.02   6.08980   3.54223
 3.80000    4.69     3.04   6.08870   3.54202
 3.75000    4.71     3.04   6.09150   3.54190
 3.70000    4.74     3.07   6.08500   3.54028
 3.65000    4.76     3.07   6.08370   3.54166
 3.60000    4.79     3.08   6.08530   3.54403
 3.55000    4.82     3.09   6.08400   3.54595
 3.50000    4.84     3.09   6.07940   3.54168
 3.45000    4.88     3.11   6.07930   3.54494
 3.40000    4.94     3.10   6.07830   3.54514
 3.35000    4.95     3.09   6.07710   3.54778
 3.30000    4.95     3.09   6.07620   3.54821
 3.25000    4.96     3.10   6.07060   3.54396
 3.20000    4.96     3.09   6.07020   3.54480
 3.15000    4.96     3.09   6.06770   3.54435
 3.10000    4.96     3.09   6.05940   3.54616
 3.05000    4.97     3.07   6.05700   3.54707
 3.00000    4.97     3.07   6.05540   3.54781
 2.95000    4.97     3.08   6.05180   3.54680
 2.90000    4.97     3.07   6.04650   3.54938
 2.85000    4.97     3.07   6.04070   3.54650
 2.80000    4.97     3.07   6.04000   3.54810
 2.75000    4.98     3.07   6.03670   3.54918
 2.70000    4.97     3.07   6.02920   3.55071
 2.65000    4.96     3.05   6.02310   3.55065
 2.60000    4.99     3.05   6.01650   3.55402
 2.55000    5.00     3.06   6.00840   3.54918
 2.50000    5.00     3.05   6.00060   3.55100
 2.45000    5.01     3.05   5.99340   3.55342
 2.40000    5.01     3.07   5.98240   3.55096
 2.35000    5.02     3.05   5.97260   3.55341
 2.30000    5.02     3.05   5.96250   3.55114
 2.25000    5.02     3.04   5.95200   3.55483
 2.20000    5.03     3.04   5.93700   3.55456
 2.15000    5.03     3.05   5.92490   3.55554
 2.10000    5.03     3.04   5.91140   3.55440
 2.05000    5.03     3.04   5.89470   3.55570
 2.00000    5.04     3.05   5.87650   3.55589
 1.95000    5.05     3.06   5.85960   3.55544
 1.90000    5.06     3.04   5.83900   3.55439
 1.85000    5.07     3.04   5.82090   3.55517
 1.80000    5.08     3.05   5.80350   3.55506
 1.75000    5.09     3.03   5.78400   3.55714
 1.70000    5.09     3.04   5.76450   3.55580
 1.65000    5.10     3.05   5.74920   3.55687
 1.60000    5.11     3.04   5.73030   3.55734
 1.55000    5.12     3.03   5.70030   3.55714
 1.50000    5.12     3.03   5.66130   3.55760
 1.45000    5.11     3.03   5.60720   3.55786
 1.40000    5.11     3.03   5.55520   3.55707
 1.35000    5.10     3.02   5.52330   3.55910
 1.30000    5.07     3.01   5.53720   3.55941
 1.25000    5.06     3.00   5.59570   3.55855
 1.20000    5.07     3.01   5.66490   3.55947
 1.15000    5.07     3.00   5.72970   3.56196
 1.10000    5.06     3.01   5.76790   3.55914
 1.05000    5.08     3.02   5.80540   3.56189
 1.00000    5.08     3.00   5.83100   3.56054
 0.95000    5.05     3.00   5.84930   3.55983
 0.90000    5.06     3.02   5.86710   3.56085
 0.85000    5.05     3.01   5.88040   3.56069
 0.80000    4.99     2.98   5.89260   3.56207
 0.75000    4.97     3.00   5.90150   3.56183
 0.70000    4.95     2.99   5.91280   3.56276
 0.65000    4.94     3.00   5.91840   3.56270
 0.60000    4.93     3.01   5.92810   3.56361
 0.55000    4.93     2.98   5.93140   3.56313
 0.50000    4.95     3.01   5.93670   3.56346
 0.45000    4.93     3.00   5.94140   3.56487
 0.40000    4.87     2.98   5.94710   3.56408
 0.35000    4.85     3.00   5.94420   3.56454
 0.30000    4.87     3.01   5.94760   3.56628
 0.25000    4.85     3.00   5.95180   3.56446
 0.20000    4.83     3.00   5.95060   3.56754
 0.15000    4.81     2.99   5.95460   3.56645
 0.10000    4.78     2.99   5.95000   3.56541
 0.05000    4.78     3.01   5.95040   3.56894
-0.00000    4.78     2.99   5.94980   3.56548
