 Field[T] Tsmpl[K] Tcntr[K] Signal RefSignal
 0.00000    4.70     2.98   2.74850   3.56848
 0.05000    4.67     2.96   2.74820   3.56949
 0.10000    4.66     2.96   2.74880   3.56744
 0.15000    4.66     2.96   2.74730   3.56529
 0.20000    4.66     2.97   2.74600   3.56824
 0.25000    4.66     2.98   2.74720   3.56608
 0.30000    4.67     2.96   2.74900   3.56880
 0.35000    4.67     2.95   2.74420   3.56631
 0.40000    4.70     2.97   2.74210   3.56489
 0.45000    4.69     2.96   2.73930   3.56551
 0.50000    4.67     2.95   2.73260   3.56066
 0.55000    4.65     2.95   2.73820   3.56413
 0.60000    4.63     2.94   2.73390   3.56374
 0.65000    4.61     2.95   2.73360   3.56437
 0.70000    4.61     2.96   2.73010   3.56221
 0.75000    4.60     2.95   2.72750   3.56227
 0.80000    4.60     2.94   2.72160   3.55988
 0.85000    4.59     2.95   2.71450   3.55976
 0.90000    4.59     2.95   2.70830   3.56232
 0.95000    4.58     2.95   2.70110   3.56203
 1.00000    4.58     2.96   2.68950   3.56152
 1.05000    4.57     2.94   2.68000   3.56052
 1.10000    4.57     2.94   2.66630   3.56420
 1.15000    4.56     2.94   2.64470   3.56349
 1.20000    4.55     2.96   2.61940   3.56289
 1.25000    4.55     2.94   2.58760   3.56255
 1.30000    4.54     2.94   2.55710   3.56242
 1.35000    4.54     2.95   2.54560   3.56240
 1.40000    4.53     2.93   2.55550   3.56111
 1.45000    4.52     2.95   2.57510   3.56036
 1.50000    4.51     2.93   2.59810   3.56045
 1.55000    4.51     2.94   2.61100   3.55906
 1.60000    4.50     2.93   2.61960   3.55836
 1.65000    4.50     2.93   2.62580   3.56032
 1.70000    4.49     2.94   2.62960   3.55848
 1.75000    4.49     2.94   2.64070   3.55783
 1.80000    4.50     2.93   2.64760   3.55766
 1.85000    4.50     2.92   2.66020   3.55979
 1.90000    4.50     2.92   2.67020   3.55725
 1.95000    4.49     2.94   2.68200   3.55965
 2.00000    4.49     2.93   2.69530   3.55890
 2.05000    4.49     2.93   2.70550   3.55918
 2.10000    4.49     2.95   2.71630   3.55696
 2.15000    4.48     2.94   2.72500   3.55949
 2.20000    4.48     2.94   2.73330   3.55755
 2.25000    4.48     2.98   2.74050   3.55538
 2.30000    4.48     2.95   2.74800   3.55433
 2.35000    4.48     2.96   2.75680   3.55645
 2.40000    4.48     2.97   2.76110   3.55542
 2.45000    4.48     2.97   2.76550   3.55825
 2.50000    4.48     2.98   2.77260   3.55803
 2.55000    4.49     2.98   2.77680   3.55653
 2.60000    4.49     2.99   2.78300   3.55726
 2.65000    4.49     2.98   2.78450   3.55855
 2.70000    4.49     2.99   2.78930   3.55826
 2.75000    4.49     2.98   2.79460   3.55933
 2.80000    4.49     2.99   2.79510   3.55593
 2.85000    4.50     2.99   2.79670   3.55527
 2.90000    4.50     2.99   2.80020   3.55567
 2.95000    4.51     3.00   2.80470   3.55666
 3.00000    4.52     3.01   2.80840   3.55558
 3.05000    4.53     2.99   2.80950   3.55611
 3.10000    4.54     3.01   2.80900   3.55454
 3.15000    4.54     3.01   2.81070   3.55436
 3.20000    4.56     3.02   2.81210   3.55416
 3.25000    4.56     3.00   2.81560   3.55325
 3.30000    4.57     3.01   2.81440   3.55436
 3.35000    4.58     3.01   2.81690   3.55556
 3.40000    4.59     3.01   2.81840   3.55481
 3.45000    4.61     3.02   2.81710   3.55174
 3.50000    4.62     3.02   2.81840   3.55411
 3.55000    4.63     3.02   2.81970   3.55182
 3.60000    4.65     3.03   2.81770   3.55322
 3.65000    4.67     3.02   2.81920   3.55002
 3.70000    4.68     3.03   2.82210   3.55296
 3.75000    4.70     3.05   2.82020   3.55124
 3.80000    4.72     3.03   2.82040   3.55161
 3.85000    4.74     3.04   2.82190   3.54943
 3.90000    4.76     3.05   2.81880   3.55070
 3.95000    4.78     3.04   2.82220   3.54914
 4.00000    4.79     3.03   2.82120   3.54626
 4.00000    4.80     3.04   2.82290   3.55122
 3.95000    4.82     3.03   2.82130   3.54933
 3.90000    4.83     3.06   2.82180   3.55020
 3.85000    4.84     3.04   2.81780   3.55086
 3.80000    4.86     3.04   2.82010   3.55213
 3.75000    4.87     3.06   2.82180   3.55248
 3.70000    4.89     3.05   2.81850   3.54963
 3.65000    4.90     3.05   2.81750   3.55077
 3.60000    4.91     3.06   2.81950   3.55196
 3.55000    4.91     3.05   2.81750   3.55123
 3.50000    4.91     3.07   2.81670   3.55202
 3.45000    4.92     3.04   2.81540   3.55220
 3.40000    4.92     3.05   2.81300   3.55392
 3.35000    4.92     3.05   2.81370   3.55225
 3.30000    4.93     3.05   2.81210   3.55361
 3.25000    4.93     3.06   2.80930   3.55289
 3.20000    4.95     3.05   2.80860   3.55401
 3.15000    4.95     3.06   2.80640   3.55243
 3.10000    4.97     3.05   2.80760   3.55371
 3.05000    4.97     3.06   2.80440   3.55540
 3.00000    4.98     3.07   2.80030   3.55582
 2.95000    5.00     3.07   2.80010   3.55695
 2.90000    5.01     3.06   2.79850   3.55518
 2.85000    5.03     3.06   2.79520   3.55792
 2.80000    5.03     3.06   2.79190   3.55603
 2.75000    5.04     3.06   2.78840   3.55641
 2.70000    5.05     3.08   2.78500   3.55693
 2.65000    5.07     3.06   2.78100   3.55570
 2.60000    5.07     3.06   2.77620   3.55485
 2.55000    5.09     3.06   2.77270   3.55682
 2.50000    5.08     3.05   2.76670   3.55873
 2.45000    5.08     3.07   2.76320   3.55629
 2.40000    5.12     3.08   2.75670   3.55839
 2.35000    5.14     3.06   2.75090   3.55781
 2.30000    5.14     3.07   2.74150   3.55773
 2.25000    5.15     3.06   2.73950   3.56064
 2.20000    5.14     3.07   2.73110   3.56126
 2.15000    5.16     3.06   2.72410   3.55943
 2.10000    5.18     3.06   2.71310   3.55738
 2.05000    5.19     3.05   2.70500   3.55841
 2.00000    5.17     3.04   2.69390   3.56052
 1.95000    5.16     3.04   2.68450   3.55891
 1.90000    5.20     3.07   2.67090   3.56271
 1.85000    5.20     3.04   2.66160   3.56226
 1.80000    5.20     3.04   2.65120   3.56238
 1.75000    5.24     3.05   2.64330   3.56099
 1.70000    5.24     3.04   2.63410   3.56272
 1.65000    5.22     3.03   2.62680   3.56389
 1.60000    5.21     3.03   2.62240   3.56409
 1.55000    5.22     3.03   2.61280   3.56426
 1.50000    5.21     3.02   2.59980   3.56558
 1.45000    5.20     3.02   2.58250   3.56579
 1.40000    5.20     3.02   2.56260   3.56628
 1.35000    5.20     3.03   2.55280   3.56444
 1.30000    5.21     3.03   2.55830   3.56593
 1.25000    5.21     3.01   2.58660   3.56771
 1.20000    5.21     3.01   2.61560   3.56710
 1.15000    5.21     3.01   2.64100   3.56831
 1.10000    5.21     3.01   2.66040   3.56642
 1.05000    5.23     3.04   2.67610   3.56665
 1.00000    5.21     3.01   2.68960   3.56788
 0.95000    5.16     2.99   2.69880   3.56748
 0.90000    5.15     3.00   2.70600   3.56896
 0.85000    5.14     2.99   2.71280   3.56798
 0.80000    5.12     3.00   2.71730   3.56872
 0.75000    5.11     3.01   2.72200   3.56794
 0.70000    5.09     3.00   2.72600   3.56825
 0.65000    5.08     2.99   2.72940   3.57000
 0.60000    5.07     3.01   2.73380   3.56645
 0.55000    5.06     3.01   2.73650   3.56930
 0.50000    5.03     2.99   2.73630   3.56689
 0.45000    5.01     3.00   2.74210   3.56949
 0.40000    4.99     2.99   2.74190   3.57186
 0.35000    4.97     3.00   2.74570   3.57133
 0.30000    4.96     3.00   2.74680   3.57100
 0.25000    4.95     2.98   2.74500   3.57255
 0.20000    4.93     2.99   2.74740   3.57348
 0.15000    4.92     2.99   2.74940   3.57404
 0.10000    4.92     2.99   2.74960   3.57390
 0.05000    4.90     3.00   2.74910   3.57201
-0.00000    4.89     2.98   2.74930   3.57381
