 Field[T] Tsmpl[K] Tcntr[K] Signal RefSignal
 0.00000    4.77     2.98   2.61980   3.57245
 0.05000    4.77     2.97   2.61760   3.57157
 0.10000    4.75     2.96   2.62120   3.57428
 0.15000    4.74     2.96   2.62150   3.57325
 0.20000    4.72     2.95   2.61690   3.56998
 0.25000    4.71     2.95   2.61760   3.57256
 0.30000    4.70     2.94   2.61620   3.57201
 0.35000    4.68     2.93   2.61560   3.57234
 0.40000    4.67     2.96   2.61410   3.56902
 0.45000    4.66     2.92   2.61280   3.56935
 0.50000    4.66     2.93   2.60830   3.57057
 0.55000    4.65     2.92   2.60320   3.56677
 0.60000    4.63     2.93   2.60280   3.56681
 0.65000    4.63     2.92   2.60120   3.56765
 0.70000    4.62     2.94   2.59590   3.56726
 0.75000    4.61     2.94   2.59240   3.56825
 0.80000    4.61     2.93   2.58970   3.56953
 0.85000    4.60     2.95   2.58060   3.56969
 0.90000    4.60     2.93   2.57760   3.57003
 0.95000    4.59     2.93   2.56810   3.56539
 1.00000    4.59     2.93   2.56060   3.56794
 1.05000    4.58     2.93   2.54830   3.57130
 1.10000    4.57     2.93   2.53310   3.56829
 1.15000    4.56     2.94   2.50880   3.56575
 1.20000    4.56     2.94   2.48710   3.56857
 1.25000    4.56     2.93   2.45250   3.56897
 1.30000    4.55     2.93   2.42310   3.56992
 1.35000    4.54     2.94   2.41590   3.56673
 1.40000    4.53     2.93   2.43000   3.56802
 1.45000    4.53     2.95   2.45790   3.56498
 1.50000    4.53     2.93   2.48770   3.56607
 1.55000    4.52     2.93   2.51380   3.56325
 1.60000    4.51     2.94   2.53020   3.56522
 1.65000    4.51     2.94   2.54350   3.56506
 1.70000    4.51     2.94   2.55450   3.56307
 1.75000    4.51     2.94   2.56180   3.56637
 1.80000    4.51     2.94   2.57000   3.56377
 1.85000    4.52     2.95   2.57660   3.56274
 1.90000    4.52     2.94   2.58170   3.56335
 1.95000    4.52     2.93   2.58440   3.56275
 2.00000    4.52     2.94   2.59170   3.56080
 2.05000    4.52     2.95   2.59730   3.56254
 2.10000    4.52     2.94   2.60220   3.55958
 2.15000    4.51     2.94   2.60720   3.55842
 2.20000    4.51     2.95   2.61110   3.55819
 2.25000    4.51     2.96   2.61650   3.55409
 2.30000    4.51     2.97   2.61930   3.55958
 2.35000    4.50     2.96   2.62340   3.55816
 2.40000    4.50     2.97   2.62500   3.55678
 2.45000    4.50     2.97   2.62660   3.55713
 2.50000    4.49     2.98   2.63320   3.55945
 2.55000    4.50     2.98   2.63310   3.56068
 2.60000    4.50     2.98   2.63720   3.55974
 2.65000    4.50     3.00   2.63850   3.55617
 2.70000    4.50     2.98   2.64240   3.55850
 2.75000    4.51     2.99   2.64340   3.55951
 2.80000    4.51     2.99   2.64520   3.55848
 2.85000    4.53     3.00   2.64470   3.55714
 2.90000    4.54     3.00   2.64350   3.55781
 2.95000    4.54     2.99   2.64660   3.55856
 3.00000    4.55     3.01   2.64660   3.55824
 3.05000    4.55     3.00   2.64650   3.55722
 3.10000    4.56     3.00   2.65040   3.55811
 3.15000    4.56     3.00   2.65300   3.55626
 3.20000    4.56     3.00   2.64920   3.55738
 3.25000    4.57     3.00   2.65180   3.55503
 3.30000    4.57     3.02   2.65370   3.55710
 3.35000    4.59     3.01   2.65490   3.55485
 3.40000    4.59     3.01   2.65460   3.55495
 3.45000    4.60     3.01   2.65340   3.55510
 3.50000    4.61     3.02   2.65460   3.55538
 3.55000    4.62     3.02   2.65620   3.55493
 3.60000    4.63     3.03   2.65630   3.55259
 3.65000    4.65     3.02   2.65790   3.55299
 3.70000    4.66     3.03   2.65300   3.55568
 3.75000    4.67     3.02   2.65580   3.55378
 3.80000    4.69     3.03   2.65760   3.55105
 3.85000    4.70     3.05   2.65850   3.55268
 3.90000    4.73     3.04   2.65810   3.55367
 3.95000    4.74     3.03   2.65660   3.55276
 4.00000    4.76     3.04   2.65790   3.55170
 4.00000    4.76     3.04   2.65780   3.55069
 3.95000    4.78     3.03   2.65870   3.55428
 3.90000    4.80     3.04   2.65870   3.55582
 3.85000    4.82     3.05   2.65690   3.55479
 3.80000    4.84     3.03   2.65760   3.55519
 3.75000    4.85     3.04   2.65730   3.55468
 3.70000    4.87     3.04   2.65170   3.55709
 3.65000    4.89     3.04   2.65430   3.55486
 3.60000    4.91     3.06   2.65440   3.55364
 3.55000    4.93     3.04   2.65470   3.55580
 3.50000    4.93     3.05   2.65560   3.55746
 3.45000    4.95     3.05   2.65500   3.55760
 3.40000    4.96     3.07   2.65200   3.55673
 3.35000    4.97     3.05   2.65030   3.55531
 3.30000    4.98     3.05   2.65100   3.56045
 3.25000    4.98     3.05   2.65060   3.56109
 3.20000    4.99     3.05   2.65070   3.55639
 3.15000    5.00     3.07   2.64840   3.55661
 3.10000    5.01     3.06   2.64830   3.55564
 3.05000    5.02     3.06   2.64510   3.55611
 3.00000    5.03     3.06   2.64230   3.55735
 2.95000    5.03     3.07   2.64580   3.55614
 2.90000    5.05     3.06   2.64080   3.55549
 2.85000    5.05     3.05   2.64050   3.55746
 2.80000    5.06     3.06   2.63870   3.55819
 2.75000    5.07     3.06   2.63560   3.55912
 2.70000    5.08     3.07   2.63260   3.55682
 2.65000    5.09     3.05   2.63380   3.55815
 2.60000    5.08     3.06   2.63120   3.55914
 2.55000    5.06     3.02   2.62830   3.55778
 2.50000    5.07     3.04   2.62910   3.55764
 2.45000    5.08     3.04   2.62710   3.56150
 2.40000    5.08     3.03   2.62400   3.56195
 2.35000    5.09     3.02   2.62040   3.56095
 2.30000    5.09     3.03   2.61820   3.56067
 2.25000    5.11     3.04   2.61140   3.56340
 2.20000    5.10     3.01   2.61270   3.56451
 2.15000    5.13     3.02   2.60750   3.56201
 2.10000    5.14     3.02   2.60210   3.56215
 2.05000    5.13     3.02   2.59540   3.56072
 2.00000    5.12     3.01   2.59260   3.56592
 1.95000    5.10     3.00   2.58170   3.56231
 1.90000    5.09     3.01   2.57860   3.56386
 1.85000    5.08     3.02   2.57220   3.56259
 1.80000    5.07     3.01   2.56420   3.56253
 1.75000    5.07     3.00   2.55930   3.56158
 1.70000    5.05     3.01   2.55050   3.56318
 1.65000    5.04     3.00   2.54250   3.56335
 1.60000    5.04     3.00   2.53070   3.56554
 1.55000    5.03     3.01   2.51510   3.56224
 1.50000    5.02     3.01   2.48700   3.56214
 1.45000    5.01     3.00   2.46070   3.56396
 1.40000    5.01     2.99   2.43260   3.56509
 1.35000    4.99     3.00   2.41330   3.56444
 1.30000    4.98     3.01   2.42020   3.56415
 1.25000    4.97     2.99   2.44490   3.56562
 1.20000    4.96     3.00   2.47710   3.56510
 1.15000    4.95     3.01   2.50830   3.56746
 1.10000    4.93     2.99   2.52260   3.56468
 1.05000    4.92     3.00   2.54100   3.56666
 1.00000    4.91     3.00   2.55620   3.56762
 0.95000    4.89     2.99   2.56570   3.56982
 0.90000    4.88     3.02   2.56900   3.56832
 0.85000    4.86     3.00   2.58080   3.56837
 0.80000    4.84     2.99   2.58380   3.56871
 0.75000    4.82     3.00   2.58990   3.56799
 0.70000    4.80     2.99   2.58990   3.56694
 0.65000    4.79     2.99   2.59710   3.56918
 0.60000    4.78     3.02   2.59960   3.56885
 0.55000    4.77     2.99   2.60260   3.57091
 0.50000    4.76     2.99   2.60560   3.56985
 0.45000    4.75     3.00   2.60980   3.57220
 0.40000    4.74     2.99   2.61230   3.57224
 0.35000    4.74     2.99   2.61540   3.57362
 0.30000    4.73     2.99   2.61140   3.57320
 0.25000    4.72     2.99   2.62010   3.57381
 0.20000    4.72     2.98   2.61480   3.57162
 0.15000    4.70     3.00   2.62130   3.57397
 0.10000    4.71     2.98   2.61890   3.57285
 0.05000    4.70     2.99   2.62040   3.57411
-0.00000    4.69     2.98   2.62800   3.57340
