 Field[T] Tsmpl[K] Tcntr[K] SignalIntensity
 0.00000    1.85     1.85   0.58964
 0.05000    1.85     1.85   0.58890
 0.10000    1.85     1.85   0.59004
 0.15000    1.85     1.85   0.58941
 0.20000    1.85     1.85   0.58925
 0.25000    1.85     1.85   0.58936
 0.30000    1.85     1.85   0.58930
 0.35000    1.85     1.85   0.58869
 0.40000    1.85     1.85   0.58895
 0.45000    1.85     1.85   0.58892
 0.50000    1.85     1.85   0.58788
 0.55000    1.85     1.85   0.58938
 0.60000    1.85     1.85   0.58992
 0.65000    1.85     1.85   0.58948
 0.70000    1.85     1.85   0.59015
 0.75000    1.85     1.85   0.58984
 0.80000    1.85     1.85   0.59061
 0.85000    1.85     1.85   0.58994
 0.90000    1.85     1.85   0.59201
 0.95000    1.85     1.85   0.58803
 1.00000    1.85     1.85   0.58930
 1.05000    1.85     1.85   0.58854
 1.10000    1.85     1.85   0.58989
 1.15000    1.85     1.85   0.58877
 1.20000    1.85     1.85   0.58872
 1.25000    1.85     1.85   0.58864
 1.30000    1.85     1.85   0.58849
 1.35000    1.85     1.85   0.58765
 1.40000    1.85     1.85   0.58760
 1.45000    1.85     1.85   0.58765
 1.50000    1.85     1.85   0.58885
 1.55000    1.85     1.85   0.58783
 1.60000    1.85     1.85   0.58714
 1.65000    1.85     1.85   0.58834
 1.70000    1.85     1.85   0.58864
 1.75000    1.85     1.85   0.58902
 1.80000    1.85     1.85   0.58994
 1.85000    1.85     1.85   0.58844
 1.90000    1.85     1.85   0.58933
 1.95000    1.85     1.85   0.58918
 2.00000    1.85     1.85   0.58892
 2.05000    1.85     1.85   0.58933
 2.10000    1.85     1.85   0.58813
 2.15000    1.85     1.85   0.58908
 2.20000    1.85     1.85   0.58885
 2.25000    1.85     1.85   0.58872
 2.30000    1.85     1.85   0.58994
 2.35000    1.85     1.85   0.59040
 2.40000    1.85     1.85   0.59010
 2.45000    1.85     1.85   0.59165
 2.50000    1.85     1.85   0.59150
 2.55000    1.85     1.85   0.59168
 2.60000    1.85     1.85   0.59055
 2.65000    1.85     1.85   0.59137
 2.70000    1.85     1.85   0.59155
 2.75000    1.85     1.85   0.59043
 2.80000    1.85     1.85   0.59163
 2.85000    1.85     1.85   0.59193
 2.90000    1.85     1.85   0.59214
 2.95000    1.85     1.85   0.59331
 3.00000    1.85     1.85   0.59310
 3.05000    1.85     1.85   0.59344
 3.10000    1.85     1.85   0.59308
 3.15000    1.85     1.85   0.59316
 3.20000    1.85     1.85   0.59407
 3.25000    1.85     1.85   0.59310
 3.30000    1.85     1.85   0.59369
 3.35000    1.85     1.85   0.59420
 3.40000    1.85     1.85   0.59351
 3.45000    1.85     1.85   0.59346
 3.50000    1.85     1.85   0.59344
 3.55000    1.85     1.85   0.59237
 3.60000    1.85     1.85   0.59188
 3.65000    1.85     1.85   0.59086
 3.70000    1.85     1.85   0.59083
 3.75000    1.85     1.85   0.59081
 3.80000    1.85     1.85   0.59191
 3.85000    1.85     1.85   0.59198
 3.90000    1.85     1.85   0.59290
 3.95000    1.85     1.85   0.59196
 4.00000    1.85     1.85   0.59270
 4.05000    1.85     1.85   0.59280
 4.10000    1.85     1.85   0.59382
 4.15000    1.85     1.85   0.59277
 4.20000    1.85     1.85   0.59267
 4.25000    1.85     1.85   0.59247
 4.30000    1.85     1.85   0.59221
 4.35000    1.85     1.85   0.59214
 4.40000    1.85     1.85   0.59147
 4.45000    1.85     1.85   0.59104
 4.50000    1.85     1.85   0.59180
 4.55000    1.85     1.85   0.59216
 4.60000    1.85     1.85   0.59160
 4.65000    1.85     1.85   0.59206
 4.70000    1.85     1.85   0.59142
 4.75000    1.85     1.85   0.59145
 4.80000    1.85     1.85   0.59147
 4.85000    1.85     1.85   0.59203
 4.90000    1.85     1.85   0.59157
 4.95000    1.85     1.85   0.59206
 5.00000    1.85     1.85   0.59244
 5.05000    1.85     1.85   0.59208
 5.10000    1.85     1.85   0.59201
 5.15000    1.85     1.85   0.59308
 5.20000    1.85     1.85   0.59586
 5.25000    1.85     1.85   0.59616
 5.30000    1.85     1.85   0.59976
 5.35000    1.85     1.85   0.60208
 5.40000    1.85     1.85   0.60333
 5.45000    1.85     1.85   0.60562
 5.50000    1.85     1.85   0.60647
 5.55000    1.85     1.85   0.60687
 5.60000    1.85     1.85   0.60664
 5.65000    1.85     1.85   0.60654
 5.70000    1.85     1.85   0.60631
 5.75000    1.85     1.85   0.60486
 5.80000    1.85     1.85   0.60550
 5.85000    1.85     1.85   0.60374
 5.90000    1.85     1.85   0.60318
 5.95000    1.85     1.85   0.60226
 6.00000    1.85     1.85   0.60134
 6.05000    1.85     1.85   0.60047
 6.10000    1.85     1.85   0.60024
 6.15000    1.85     1.85   0.59879
 6.20000    1.85     1.85   0.59739
 6.25000    1.85     1.85   0.59772
 6.30000    1.85     1.85   0.59731
 6.35000    1.85     1.85   0.59752
 6.40000    1.85     1.85   0.59678
 6.45000    1.85     1.85   0.59752
 6.50000    1.85     1.85   0.59637
 6.55000    1.85     1.85   0.59652
 6.60000    1.85     1.85   0.59591
 6.65000    1.85     1.85   0.59525
 6.70000    1.85     1.85   0.59578
 6.75000    1.85     1.85   0.59563
 6.80000    1.85     1.85   0.59430
 6.85000    1.85     1.85   0.59476
 6.90000    1.85     1.85   0.59479
 6.95000    1.85     1.85   0.59499
 7.00000    1.85     1.85   0.59372
 7.00000    1.85     1.85   0.59384
 6.95000    1.85     1.85   0.59448
 6.90000    1.85     1.85   0.59438
 6.85000    1.85     1.85   0.59481
 6.80000    1.85     1.85   0.59415
 6.75000    1.85     1.85   0.59517
 6.70000    1.85     1.85   0.59446
 6.65000    1.85     1.85   0.59466
 6.60000    1.85     1.85   0.59512
 6.55000    1.85     1.85   0.59662
 6.50000    1.85     1.85   0.59627
 6.45000    1.85     1.85   0.59540
 6.40000    1.85     1.85   0.59696
 6.35000    1.85     1.85   0.59606
 6.30000    1.85     1.85   0.59711
 6.25000    1.85     1.85   0.59716
 6.20000    1.85     1.85   0.59800
 6.15000    1.85     1.85   0.59892
 6.10000    1.85     1.85   0.59933
 6.05000    1.85     1.85   0.59981
 6.00000    1.85     1.85   0.60126
 5.95000    1.85     1.85   0.60193
 5.90000    1.85     1.85   0.60343
 5.85000    1.85     1.85   0.60522
 5.80000    1.85     1.85   0.60522
 5.75000    1.85     1.85   0.60642
 5.70000    1.85     1.85   0.60787
 5.65000    1.85     1.85   0.60767
 5.60000    1.85     1.85   0.60731
 5.55000    1.85     1.85   0.60825
 5.50000    1.85     1.85   0.60795
 5.45000    1.85     1.85   0.60591
 5.40000    1.85     1.85   0.60568
 5.35000    1.85     1.85   0.60366
 5.30000    1.85     1.85   0.60190
 5.25000    1.85     1.85   0.59869
 5.20000    1.85     1.85   0.59772
 5.15000    1.85     1.85   0.59517
 5.10000    1.85     1.85   0.59402
 5.05000    1.85     1.85   0.59400
 5.00000    1.85     1.85   0.59313
 4.95000    1.85     1.85   0.59344
 4.90000    1.85     1.85   0.59333
 4.85000    1.85     1.85   0.59410
 4.80000    1.85     1.85   0.59331
 4.75000    1.85     1.85   0.59374
 4.70000    1.85     1.85   0.59331
 4.65000    1.85     1.85   0.59433
 4.60000    1.85     1.85   0.59407
 4.55000    1.85     1.85   0.59400
 4.50000    1.85     1.85   0.59448
 4.45000    1.85     1.85   0.59479
 4.40000    1.85     1.85   0.59611
 4.35000    1.85     1.85   0.59497
 4.30000    1.85     1.85   0.59471
 4.25000    1.85     1.85   0.59673
 4.20000    1.85     1.85   0.59573
 4.15000    1.85     1.85   0.59548
 4.10000    1.85     1.85   0.59703
 4.05000    1.85     1.85   0.59744
 4.00000    1.85     1.85   0.59673
 3.95000    1.85     1.85   0.59836
 3.90000    1.85     1.85   0.59657
 3.85000    1.85     1.85   0.59486
 3.80000    1.85     1.85   0.59481
 3.75000    1.85     1.85   0.59397
 3.70000    1.85     1.85   0.59497
 3.65000    1.85     1.85   0.59446
 3.60000    1.85     1.85   0.59525
 3.55000    1.85     1.85   0.59933
 3.50000    1.85     1.85   0.59647
 3.45000    1.85     1.85   0.59815
 3.40000    1.85     1.85   0.59900
 3.35000    1.85     1.85   0.59843
 3.30000    1.85     1.85   0.59869
 3.25000    1.85     1.85   0.59930
 3.20000    1.85     1.85   0.59813
 3.15000    1.85     1.85   0.59718
 3.10000    1.85     1.85   0.59690
 3.05000    1.85     1.85   0.59690
 3.00000    1.85     1.85   0.59871
 2.95000    1.85     1.85   0.59757
 2.90000    1.85     1.85   0.59843
 2.85000    1.85     1.85   0.59708
 2.80000    1.85     1.85   0.59749
 2.75000    1.85     1.85   0.59752
 2.70000    1.85     1.85   0.59660
 2.65000    1.85     1.85   0.59808
 2.60000    1.85     1.85   0.59657
 2.55000    1.85     1.85   0.59673
 2.50000    1.85     1.85   0.59632
 2.45000    1.85     1.85   0.59599
 2.40000    1.85     1.85   0.59673
 2.35000    1.85     1.85   0.59624
 2.30000    1.85     1.85   0.59645
 2.25000    1.85     1.85   0.59481
 2.20000    1.85     1.85   0.59446
 2.15000    1.85     1.85   0.59372
 2.10000    1.85     1.85   0.59568
 2.05000    1.85     1.85   0.59367
 2.00000    1.85     1.85   0.59466
 1.95000    1.85     1.85   0.59430
 1.90000    1.85     1.85   0.59601
 1.85000    1.85     1.85   0.59542
 1.80000    1.85     1.85   0.59581
 1.75000    1.85     1.85   0.59642
 1.70000    1.85     1.85   0.59520
 1.65000    1.85     1.85   0.59609
 1.60000    1.85     1.85   0.59591
 1.55000    1.85     1.85   0.59606
 1.50000    1.85     1.85   0.59583
 1.45000    1.85     1.85   0.59469
 1.40000    1.85     1.85   0.59504
 1.35000    1.85     1.85   0.59402
 1.30000    1.85     1.85   0.59293
 1.25000    1.85     1.85   0.59448
 1.20000    1.85     1.85   0.59446
 1.15000    1.85     1.85   0.59540
 1.10000    1.85     1.85   0.59407
 1.05000    1.85     1.85   0.59412
 1.00000    1.85     1.85   0.59400
 0.95000    1.85     1.85   0.59471
 0.90000    1.85     1.85   0.59448
 0.85000    1.85     1.85   0.59463
 0.80000    1.85     1.85   0.59425
 0.75000    1.85     1.85   0.59502
 0.70000    1.85     1.85   0.59527
 0.65000    1.85     1.85   0.59435
 0.60000    1.85     1.85   0.59492
 0.55000    1.85     1.85   0.59474
 0.50000    1.85     1.85   0.59400
 0.45000    1.85     1.85   0.59364
 0.40000    1.85     1.85   0.59563
 0.35000    1.85     1.85   0.59349
 0.30000    1.85     1.85   0.59440
 0.25000    1.85     1.85   0.59341
 0.20000    1.85     1.85   0.59333
 0.15000    1.85     1.85   0.59494
 0.10000    1.85     1.85   0.59517
 0.05000    1.85     1.85   0.59374
 -0.00000    1.85     1.85   0.59369
