 Field[T] Tsmpl[K] Tcntr[K] Signal   Mirror[MM]
 0.00000    4.93     2.99   0.60659  1.0315
 0.05000    4.92     2.99   0.60664  1.0317
 0.10000    4.92     2.99   0.60628  1.0320
 0.15000    4.92     2.99   0.60613  1.0324
 0.20000    4.91     2.99   0.60619  1.0330
 0.25000    4.91     3.00   0.60613  1.0337
 0.30000    4.91     2.99   0.60615  1.0339
 0.35000    4.91     3.00   0.60595  1.0344
 0.40000    4.91     3.01   0.60575  1.0346
 0.45000    4.91     2.99   0.60550  1.0348
 0.50000    4.90     2.99   0.60537  1.0352
 0.55000    4.90     3.02   0.60524  1.0354
 0.60000    4.90     3.00   0.60521  1.0356
 0.65000    4.90     3.01   0.60494  1.0361
 0.70000    4.90     3.00   0.60478  1.0357
 0.75000    4.90     3.00   0.60475  1.0360
 0.80000    4.90     3.01   0.60457  1.0362
 0.85000    4.89     2.96   0.60408  1.0364
 0.90000    4.87     2.96   0.60364  1.0368
 0.95000    4.86     2.97   0.60404  1.0369
 1.00000    4.86     2.96   0.60339  1.0375
 1.05000    4.85     2.96   0.60339  1.0376
 1.10000    4.85     2.97   0.60291  1.0377
 1.15000    4.85     2.97   0.60249  1.0378
 1.20000    4.84     2.96   0.60246  1.0378
 1.25000    4.84     2.98   0.60169  1.0383
 1.30000    4.83     2.97   0.60133  1.0388
 1.35000    4.83     2.95   0.60103  1.0390
 1.40000    4.80     2.96   0.60050  1.0390
 1.45000    4.80     2.95   0.59964  1.0391
 1.50000    4.79     2.96   0.59868  1.0395
 1.55000    4.78     2.96   0.59743  1.0397
 1.60000    4.78     2.98   0.59611  1.0395
 1.65000    4.78     2.97   0.59535  1.0394
 1.70000    4.78     2.98   0.59504  1.0389
 1.75000    4.78     2.97   0.59499  1.0387
 1.80000    4.78     2.98   0.59535  1.0385
 1.85000    4.78     2.98   0.59564  1.0381
 1.90000    4.79     2.99   0.59634  1.0379
 1.95000    4.80     2.99   0.59665  1.0382
 2.00000    4.80     2.99   0.59695  1.0381
 2.05000    4.81     2.99   0.59733  1.0378
 2.10000    4.82     3.01   0.59749  1.0381
 2.15000    4.82     2.99   0.59778  1.0380
 2.20000    4.83     3.01   0.59796  1.0382
 2.25000    4.84     2.99   0.59849  1.0383
 2.30000    4.84     3.00   0.59801  1.0384
 2.35000    4.84     3.01   0.59826  1.0382
 2.40000    4.84     3.00   0.59827  1.0384
 2.45000    4.84     3.00   0.59834  1.0385
 2.50000    4.84     3.00   0.59847  1.0388
 2.55000    4.84     3.00   0.59840  1.0386
 2.60000    4.84     3.01   0.59827  1.0388
 2.65000    4.84     3.00   0.59831  1.0389
 2.70000    4.84     3.00   0.59808  1.0386
 2.75000    4.85     3.01   0.59810  1.0387
 2.80000    4.85     3.01   0.59807  1.0388
 2.85000    4.86     3.03   0.59805  1.0388
 2.90000    4.87     3.02   0.59779  1.0389
 2.95000    4.87     3.03   0.59800  1.0389
 3.00000    4.88     3.04   0.59779  1.0389
 3.05000    4.88     3.03   0.59775  1.0390
 3.10000    4.88     3.03   0.59774  1.0390
 3.15000    4.88     3.04   0.59786  1.0390
 3.20000    4.89     3.05   0.59779  1.0391
 3.25000    4.89     3.03   0.59785  1.0389
 3.30000    4.88     3.03   0.59759  1.0394
 3.35000    4.88     3.04   0.59773  1.0394
 3.40000    4.88     3.03   0.59758  1.0397
 3.45000    4.88     3.04   0.59779  1.0393
 3.50000    4.89     3.04   0.59719  1.0393
 3.55000    4.89     3.03   0.59732  1.0396
 3.60000    4.90     3.04   0.59703  1.0394
 3.65000    4.90     3.04   0.59703  1.0395
 3.70000    4.91     3.04   0.59702  1.0393
 3.75000    4.91     3.05   0.59690  1.0394
 3.80000    4.91     3.06   0.59671  1.0396
 3.85000    4.91     3.04   0.59663  1.0397
 3.90000    4.91     3.04   0.59650  1.0398
 3.95000    4.92     3.06   0.59639  1.0399
 4.00000    4.93     3.05   0.59646  1.0397
 4.00000    4.94     3.04   0.59645  1.0395
 3.95000    4.94     3.05   0.59673  1.0393
 3.90000    4.95     3.06   0.59670  1.0397
 3.85000    4.96     3.08   0.59672  1.0397
 3.80000    4.99     3.08   0.59692  1.0394
 3.75000    5.01     3.09   0.59683  1.0395
 3.70000    5.03     3.09   0.59682  1.0397
 3.65000    5.05     3.11   0.59700  1.0396
 3.60000    5.09     3.12   0.59730  1.0397
 3.55000    5.12     3.11   0.59709  1.0398
 3.50000    5.14     3.11   0.59720  1.0399
 3.45000    5.18     3.11   0.59736  1.0398
 3.40000    5.20     3.11   0.59740  1.0396
 3.35000    5.23     3.13   0.59736  1.0392
 3.30000    5.26     3.11   0.59741  1.0391
 3.25000    5.28     3.10   0.59754  1.0394
 3.20000    5.29     3.12   0.59756  1.0398
 3.15000    5.32     3.10   0.59776  1.0397
 3.10000    5.34     3.10   0.59742  1.0397
 3.05000    5.34     3.09   0.59783  1.0396
 3.00000    5.36     3.09   0.59792  1.0399
 2.95000    5.37     3.10   0.59808  1.0398
 2.90000    5.38     3.09   0.59809  1.0401
 2.85000    5.39     3.09   0.59816  1.0404
 2.80000    5.40     3.07   0.59839  1.0401
 2.75000    5.41     3.07   0.59808  1.0400
 2.70000    5.41     3.06   0.59825  1.0398
 2.65000    5.41     3.06   0.59822  1.0398
 2.60000    5.41     3.06   0.59825  1.0397
 2.55000    5.41     3.07   0.59824  1.0399
 2.50000    5.42     3.05   0.59833  1.0399
 2.45000    5.42     3.04   0.59835  1.0400
 2.40000    5.42     3.06   0.59838  1.0402
 2.35000    5.43     3.04   0.59828  1.0403
 2.30000    5.43     3.06   0.59828  1.0401
 2.25000    5.44     3.04   0.59846  1.0398
 2.20000    5.45     3.03   0.59831  1.0401
 2.15000    5.45     3.03   0.59829  1.0402
 2.10000    5.45     3.03   0.59811  1.0403
 2.05000    5.46     3.03   0.59771  1.0403
 2.00000    5.46     3.04   0.59716  1.0401
 1.95000    5.47     3.02   0.59679  1.0401
 1.90000    5.47     3.02   0.59621  1.0402
 1.85000    5.47     3.01   0.59622  1.0402
 1.80000    5.48     3.03   0.59593  1.0403
 1.75000    5.49     3.01   0.59552  1.0406
 1.70000    5.49     3.02   0.59538  1.0407
 1.65000    5.50     3.01   0.59554  1.0409
 1.60000    5.50     3.01   0.59645  1.0411
 1.55000    5.51     3.03   0.59784  1.0413
 1.50000    5.52     3.01   0.59901  1.0417
 1.45000    5.53     3.01   0.59980  1.0414
 1.40000    5.53     3.00   0.60013  1.0413
 1.35000    5.53     3.01   0.60101  1.0411
 1.30000    5.54     3.02   0.60147  1.0409
 1.25000    5.54     3.00   0.60205  1.0409
 1.20000    5.54     3.02   0.60230  1.0406
 1.15000    5.55     3.00   0.60258  1.0404
 1.10000    5.54     3.01   0.60269  1.0402
 1.05000    5.54     3.01   0.60304  1.0401
 1.00000    5.54     2.99   0.60320  1.0395
 0.95000    5.53     3.00   0.60326  1.0400
 0.90000    5.51     2.99   0.60347  1.0397
 0.85000    5.51     3.00   0.60402  1.0393
 0.80000    5.50     3.01   0.60422  1.0392
 0.75000    5.49     2.99   0.60433  1.0390
 0.70000    5.48     3.00   0.60443  1.0386
 0.65000    5.47     2.99   0.60473  1.0384
 0.60000    5.45     3.01   0.60487  1.0380
 0.55000    5.45     3.01   0.60500  1.0377
 0.50000    5.44     3.00   0.60510  1.0373
 0.45000    5.44     3.00   0.60539  1.0370
 0.40000    5.43     3.00   0.60540  1.0371
 0.35000    5.43     3.00   0.60554  1.0369
 0.30000    5.43     2.99   0.60569  1.0365
 0.25000    5.42     2.99   0.60573  1.0361
 0.20000    5.41     3.00   0.60604  1.0364
 0.15000    5.41     2.99   0.60626  1.0362
 0.10000    5.41     3.01   0.60608  1.0361
 0.05000    5.42     2.99   0.60706  1.0357
-0.00000    5.42     3.00   0.60731  1.0355
