 Field[T] Tsmpl[K] Tcntr[K] Signal   Mirror[MM]
 0.00000    5.19     2.97   0.85327  1.0209
 0.05000    5.19     2.97   0.85285  1.0210
 0.10000    5.18     2.96   0.85261  1.0215
 0.15000    5.18     2.95   0.85218  1.0219
 0.20000    5.17     2.96   0.85211  1.0219
 0.25000    5.17     2.98   0.85177  1.0223
 0.30000    5.18     2.97   0.85176  1.0226
 0.35000    5.18     2.97   0.85140  1.0229
 0.40000    5.19     2.97   0.85112  1.0231
 0.45000    5.20     2.98   0.85080  1.0232
 0.50000    5.20     2.97   0.85074  1.0233
 0.55000    5.20     2.98   0.85028  1.0236
 0.60000    5.19     2.96   0.84961  1.0238
 0.65000    5.18     2.95   0.84934  1.0241
 0.70000    5.16     2.94   0.84904  1.0243
 0.75000    5.14     2.93   0.84903  1.0244
 0.80000    5.11     2.93   0.84801  1.0248
 0.85000    5.10     2.92   0.84762  1.0250
 0.90000    5.08     2.93   0.84721  1.0251
 0.95000    5.05     2.90   0.84657  1.0260
 1.00000    5.03     2.91   0.84578  1.0264
 1.05000    5.01     2.91   0.84468  1.0273
 1.10000    4.98     2.90   0.84420  1.0272
 1.15000    4.97     2.92   0.84264  1.0266
 1.20000    4.95     2.88   0.84148  1.0261
 1.25000    4.93     2.90   0.84020  1.0260
 1.30000    4.93     2.92   0.83922  1.0263
 1.35000    4.92     2.88   0.83876  1.0262
 1.40000    4.91     2.88   0.83861  1.0262
 1.45000    4.90     2.90   0.83854  1.0257
 1.50000    4.90     2.90   0.83924  1.0256
 1.55000    4.90     2.93   0.83956  1.0253
 1.60000    4.91     2.92   0.84003  1.0253
 1.65000    4.90     2.93   0.84054  1.0246
 1.70000    4.90     2.93   0.84080  1.0245
 1.75000    4.89     2.94   0.84106  1.0250
 1.80000    4.89     2.95   0.84180  1.0250
 1.85000    4.87     2.96   0.84163  1.0250
 1.90000    4.86     2.97   0.84169  1.0251
 1.95000    4.86     2.97   0.84161  1.0249
 2.00000    4.86     2.97   0.84180  1.0250
 2.05000    4.85     2.97   0.84171  1.0251
 2.10000    4.85     2.98   0.84163  1.0250
 2.15000    4.84     2.98   0.84145  1.0250
 2.20000    4.84     2.99   0.84127  1.0250
 2.25000    4.84     2.99   0.84140  1.0251
 2.30000    4.83     2.99   0.84133  1.0278
 2.35000    4.82     3.00   0.84137  1.0263
 2.40000    4.82     2.98   0.84114  1.0259
 2.45000    4.81     2.98   0.84089  1.0256
 2.50000    4.80     3.01   0.84089  1.0256
 2.55000    4.79     2.99   0.84091  1.0255
 2.60000    4.79     2.99   0.84043  1.0254
 2.65000    4.78     2.99   0.84054  1.0255
 2.70000    4.77     3.02   0.84032  1.0254
 2.75000    4.77     3.01   0.84032  1.0254
 2.80000    4.76     3.00   0.84039  1.0253
 2.85000    4.76     3.00   0.84032  1.0253
 2.90000    4.76     3.02   0.84031  1.0253
 2.95000    4.76     3.01   0.84002  1.0253
 3.00000    4.76     3.01   0.83975  1.0253
 3.05000    4.76     3.03   0.83935  1.0254
 3.10000    4.78     3.02   0.83925  1.0254
 3.15000    4.78     3.02   0.83936  1.0255
 3.20000    4.80     3.03   0.83904  1.0254
 3.25000    4.81     3.03   0.83841  1.0256
 3.30000    4.82     3.04   0.83871  1.0256
 3.35000    4.84     3.05   0.83859  1.0256
 3.40000    4.86     3.04   0.83812  1.0258
 3.45000    4.88     3.03   0.83857  1.0257
 3.50000    4.90     3.04   0.83846  1.0257
 3.55000    4.91     3.03   0.83815  1.0257
 3.60000    4.92     3.05   0.83844  1.0256
 3.65000    4.93     3.03   0.83839  1.0257
 3.70000    4.93     3.02   0.83808  1.0257
 3.75000    4.93     3.02   0.83774  1.0255
 3.80000    4.93     3.02   0.83760  1.0260
 3.85000    4.94     3.03   0.83721  1.0260
 3.90000    4.94     3.01   0.83720  1.0262
 3.95000    4.94     3.01   0.83662  1.0267
 4.00000    4.93     3.01   0.83711  1.0267
 4.00000    4.93     3.01   0.83697  1.0269
 3.95000    4.93     3.03   0.83743  1.0266
 3.90000    4.94     3.02   0.83714  1.0266
 3.85000    4.95     3.03   0.83755  1.0262
 3.80000    4.97     3.05   0.83739  1.0263
 3.75000    4.98     3.04   0.83746  1.0263
 3.70000    5.01     3.05   0.83787  1.0263
 3.65000    5.03     3.07   0.83788  1.0260
 3.60000    5.05     3.07   0.83822  1.0257
 3.55000    5.08     3.07   0.83844  1.0255
 3.50000    5.11     3.11   0.83865  1.0258
 3.45000    5.14     3.08   0.83867  1.0260
 3.40000    5.16     3.08   0.83829  1.0261
 3.35000    5.18     3.08   0.83854  1.0262
 3.30000    5.20     3.09   0.83885  1.0262
 3.25000    5.22     3.10   0.83886  1.0260
 3.20000    5.25     3.11   0.83898  1.0259
 3.15000    5.27     3.09   0.83877  1.0259
 3.10000    5.28     3.10   0.83947  1.0259
 3.05000    5.30     3.10   0.83926  1.0260
 3.00000    5.32     3.09   0.83959  1.0259
 2.95000    5.34     3.09   0.83953  1.0258
 2.90000    5.34     3.08   0.83962  1.0259
 2.85000    5.35     3.09   0.83975  1.0260
 2.80000    5.36     3.07   0.84011  1.0258
 2.75000    5.38     3.09   0.84006  1.0260
 2.70000    5.40     3.07   0.84011  1.0262
 2.65000    5.40     3.06   0.84017  1.0261
 2.60000    5.41     3.06   0.84033  1.0260
 2.55000    5.41     3.07   0.84067  1.0258
 2.50000    5.42     3.05   0.84063  1.0260
 2.45000    5.43     3.05   0.84086  1.0258
 2.40000    5.43     3.04   0.84062  1.0259
 2.35000    5.43     3.05   0.84039  1.0259
 2.30000    5.44     3.04   0.84069  1.0259
 2.25000    5.44     3.05   0.84091  1.0257
 2.20000    5.45     3.03   0.84074  1.0259
 2.15000    5.46     3.05   0.84106  1.0259
 2.10000    5.47     3.06   0.84105  1.0258
 2.05000    5.48     3.04   0.84109  1.0259
 2.00000    5.49     3.03   0.84127  1.0258
 1.95000    5.50     3.03   0.84103  1.0260
 1.90000    5.50     3.03   0.84128  1.0256
 1.85000    5.51     3.04   0.84112  1.0256
 1.80000    5.52     3.02   0.84110  1.0256
 1.75000    5.52     3.02   0.84066  1.0254
 1.70000    5.52     3.04   0.84042  1.0255
 1.65000    5.52     3.02   0.84013  1.0255
 1.60000    5.52     3.01   0.83984  1.0256
 1.55000    5.52     3.01   0.83924  1.0255
 1.50000    5.51     3.01   0.83880  1.0255
 1.45000    5.51     3.03   0.83862  1.0257
 1.40000    5.50     3.01   0.83829  1.0256
 1.35000    5.50     3.01   0.83806  1.0260
 1.30000    5.49     3.01   0.83862  1.0262
 1.25000    5.48     3.01   0.83899  1.0264
 1.20000    5.47     3.01   0.84061  1.0266
 1.15000    5.46     3.02   0.84222  1.0266
 1.10000    5.46     3.00   0.84326  1.0264
 1.05000    5.45     3.00   0.84419  1.0264
 1.00000    5.44     3.00   0.84494  1.0263
 0.95000    5.43     3.00   0.84555  1.0261
 0.90000    5.42     3.02   0.84638  1.0261
 0.85000    5.42     3.00   0.84701  1.0259
 0.80000    5.41     3.00   0.84768  1.0255
 0.75000    5.41     3.00   0.84810  1.0252
 0.70000    5.40     3.00   0.84825  1.0248
 0.65000    5.40     3.01   0.84905  1.0253
 0.60000    5.40     3.00   0.84942  1.0254
 0.55000    5.40     3.00   0.84979  1.0250
 0.50000    5.40     2.99   0.85008  1.0250
 0.45000    5.40     3.00   0.85114  1.0249
 0.40000    5.40     3.02   0.85087  1.0243
 0.35000    5.41     2.99   0.85154  1.0238
 0.30000    5.41     3.00   0.85149  1.0234
 0.25000    5.41     2.99   0.85166  1.0230
 0.20000    5.41     3.00   0.85205  1.0224
 0.15000    5.40     3.01   0.85272  1.0224
 0.10000    5.40     2.99   0.85250  1.0220
 0.05000    5.39     2.99   0.85322  1.0218
