 Field[T] Tsmpl[K] Tcntr[K] Signal   Mirror[MM]
 0.00000    5.07     2.97   1.23727  0.9620
 0.05000    0.00     2.98   1.23687  0.9625
 0.10000    5.07     2.96   1.23663  0.9627
 0.15000    5.07     2.97   1.23634  0.9628
 0.20000    5.07     2.96   1.23604  0.9631
 0.25000    5.06     2.96   1.23541  0.9635
 0.30000    5.06     2.98   1.23556  0.9637
 0.35000    5.06     2.97   1.23511  0.9642
 0.40000    5.07     2.97   1.23487  0.9644
 0.45000    0.00     2.97   1.23461  0.9646
 0.50000    5.07     2.99   1.23362  0.9649
 0.55000    5.07     2.98   1.23333  0.9651
 0.60000    5.07     2.98   1.23260  0.9653
 0.65000    5.07     2.98   1.23208  0.9656
 0.70000    5.07     2.99   1.23139  0.9656
 0.75000    5.07     2.98   1.22996  0.9661
 0.80000    5.07     2.95   1.22895  0.9661
 0.85000    5.06     2.96   1.22774  0.9662
 0.90000    5.06     2.95   1.22608  0.9663
 0.95000    5.05     2.96   1.22434  0.9663
 1.00000    5.05     2.95   1.22360  0.9662
 1.05000    5.03     2.94   1.22267  0.9660
 1.10000    5.02     2.96   1.22312  0.9661
 1.15000    5.01     2.93   1.22341  0.9660
 1.20000    5.00     2.95   1.22374  0.9660
 1.25000    5.00     2.93   1.22429  0.9659
 1.30000    4.99     2.95   1.22517  0.9657
 1.35000    4.99     2.96   1.22562  0.9658
 1.40000    4.99     2.95   1.22590  0.9658
 1.45000    5.00     2.95   1.22651  0.9659
 1.50000    5.01     2.95   1.22692  0.9658
 1.55000    5.01     2.94   1.22672  0.9659
 1.60000    5.01     2.94   1.22700  0.9659
 1.65000    5.00     2.95   1.22745  0.9659
 1.70000    4.99     2.94   1.22724  0.9659
 1.75000    4.98     2.96   1.22731  0.9660
 1.80000    4.98     2.96   1.22721  0.9662
 1.85000    4.98     2.96   1.22712  0.9662
 1.90000    4.98     2.98   1.22724  0.9661
 1.95000    4.98     2.97   1.22688  0.9662
 2.00000    4.98     2.97   1.22676  0.9663
 2.05000    4.98     2.99   1.22714  0.9663
 2.10000    4.98     2.98   1.22707  0.9663
 2.15000    4.98     2.99   1.22661  0.9662
 2.20000    4.98     2.98   1.22657  0.9664
 2.25000    4.98     3.00   1.22636  0.9664
 2.30000    4.98     2.99   1.22658  0.9665
 2.35000    4.98     2.99   1.22703  0.9666
 2.40000    4.98     2.99   1.22691  0.9665
 2.45000    4.97     2.99   1.22588  0.9665
 2.50000    4.97     3.00   1.22623  0.9665
 2.55000    4.97     3.02   1.22591  0.9667
 2.60000    4.97     2.99   1.22560  0.9666
 2.65000    4.97     3.01   1.22580  0.9665
 2.70000    4.97     3.01   1.22540  0.9666
 2.75000    4.96     2.99   1.22571  0.9666
 2.80000    4.96     3.01   1.22533  0.9665
 2.85000    4.96     3.00   1.22509  0.9666
 2.90000    4.96     3.01   1.22599  0.9665
 2.95000    4.96     3.02   1.22522  0.9665
 3.00000    4.97     3.01   1.22498  0.9666
 3.00000    4.97     3.02   1.22560  0.9666
 2.95000    4.97     3.01   1.22530  0.9667
 2.90000    4.98     3.02   1.22576  0.9668
 2.85000    4.99     3.03   1.22612  0.9667
 2.80000    5.00     3.03   1.22622  0.9669
 2.75000    5.01     3.05   1.22611  0.9671
 2.70000    5.02     3.04   1.22634  0.9669
 2.65000    5.03     3.05   1.22674  0.9672
 2.60000    5.05     3.07   1.22711  0.9667
 2.55000    5.07     3.06   1.22709  0.9668
 2.50000    5.08     3.07   1.22682  0.9666
 2.45000    5.10     3.07   1.22778  0.9665
 2.40000    5.13     3.09   1.22798  0.9662
 2.35000    5.14     3.09   1.22820  0.9665
 2.30000    5.16     3.09   1.22886  0.9664
 2.25000    5.19     3.11   1.22909  0.9665
 2.20000    5.20     3.10   1.22920  0.9665
 2.15000    5.22     3.10   1.22969  0.9665
 2.10000    5.23     3.09   1.23032  0.9665
 2.05000    5.24     3.09   1.23118  0.9663
 2.00000    5.26     3.09   1.23159  0.9665
 1.95000    5.27     3.10   1.23385  0.9663
 1.90000    5.29     3.09   1.23603  0.9662
 1.85000    5.30     3.09   1.23867  0.9662
 1.80000    5.30     3.07   1.24103  0.9662
 1.75000    5.32     3.08   1.24364  0.9661
 1.70000    5.32     3.06   1.24510  0.9661
 1.65000    5.33     3.07   1.24581  0.9661
 1.60000    5.34     3.05   1.24043  0.9663
 1.55000    5.34     3.06   1.23818  0.9663
 1.50000    5.35     3.05   1.23741  0.9662
 1.45000    5.36     3.05   1.23687  0.9662
 1.40000    5.37     3.07   1.23641  0.9658
 1.35000    5.38     3.05   1.23518  0.9657
 1.30000    5.38     3.05   1.23464  0.9656
 1.25000    5.40     3.04   1.23397  0.9658
 1.20000    5.40     3.03   1.23388  0.9657
 1.15000    5.40     3.03   1.23398  0.9658
 1.10000    5.40     3.03   1.23421  0.9662
 1.05000    5.40     3.03   1.23498  0.9664
 1.00000    5.40     3.02   1.23487  0.9663
 0.95000    5.40     3.02   1.23524  0.9670
 0.90000    5.40     3.01   1.23736  0.9667
 0.85000    5.39     3.04   1.23916  0.9668
 0.80000    5.39     3.01   1.24086  0.9666
 0.75000    5.39     3.01   1.24197  0.9662
 0.70000    5.38     3.01   1.24332  0.9659
 0.65000    5.37     3.01   1.24375  0.9654
 0.60000    5.38     3.02   1.24516  0.9654
 0.55000    5.38     3.00   1.24531  0.9649
 0.50000    5.38     3.00   1.24573  0.9650
 0.45000    5.38     3.01   1.24643  0.9648
 0.40000    5.38     3.00   1.24695  0.9646
 0.35000    5.38     3.00   1.24671  0.9648
 0.30000    5.37     3.01   1.24769  0.9647
 0.25000    5.37     3.01   1.24811  0.9639
 0.20000    5.37     3.00   1.24836  0.9636
 0.15000    5.36     3.00   1.24881  0.9629
 0.10000    5.36     3.00   1.24941  0.9628
 0.05000    5.36     3.00   1.24986  0.9624
-0.00000    5.36     3.00   1.25006  0.9622
