 Field[T] Tsmpl[K] Tcntr[K] Signal   Mirror[MM]
 0.00000    5.39     2.98   0.66293  1.0566
 0.05000    5.38     2.98   0.66279  1.0569
 0.10000    5.38     2.98   0.66246  1.0572
 0.15000    5.37     2.97   0.66218  1.0577
 0.20000    5.36     2.98   0.66179  1.0581
 0.25000    5.36     2.98   0.66161  1.0583
 0.30000    5.34     2.98   0.66112  1.0587
 0.35000    5.33     2.97   0.66046  1.0589
 0.40000    5.32     2.98   0.66006  1.0590
 0.45000    5.30     2.97   0.65980  1.0593
 0.50000    5.29     2.97   0.65945  1.0594
 0.55000    5.28     2.98   0.65918  1.0596
 0.60000    5.27     2.98   0.65893  1.0598
 0.65000    5.26     2.97   0.65858  1.0599
 0.70000    5.24     2.96   0.65827  1.0602
 0.75000    5.22     2.97   0.65795  1.0603
 0.80000    5.22     2.97   0.65755  1.0607
 0.85000    5.21     2.96   0.65711  1.0608
 0.90000    5.20     2.96   0.65696  1.0610
 0.95000    5.19     2.96   0.65626  1.0611
 1.00000    5.18     2.96   0.65593  1.0613
 1.05000    5.18     2.95   0.65552  1.0616
 1.10000    5.17     2.96   0.65496  1.0619
 1.15000    5.16     2.94   0.65435  1.0617
 1.20000    5.14     2.96   0.65382  1.0616
 1.25000    5.13     2.94   0.65316  1.0618
 1.30000    5.13     2.94   0.65239  1.0620
 1.35000    5.12     2.94   0.65154  1.0621
 1.40000    5.11     2.93   0.65032  1.0622
 1.45000    5.10     2.95   0.64930  1.0621
 1.50000    5.09     2.95   0.64825  1.0620
 1.55000    5.09     2.96   0.64807  1.0616
 1.60000    5.09     2.95   0.64806  1.0614
 1.65000    5.09     2.93   0.64826  1.0612
 1.70000    5.09     2.96   0.64847  1.0610
 1.75000    5.09     2.94   0.64889  1.0609
 1.80000    5.09     2.95   0.64909  1.0612
 1.85000    5.09     2.95   0.64943  1.0612
 1.90000    5.09     2.96   0.64990  1.0612
 1.95000    5.08     2.98   0.65015  1.0612
 2.00000    5.08     2.97   0.65038  1.0612
 2.05000    5.08     2.97   0.65035  1.0612
 2.10000    5.07     2.97   0.65050  1.0613
 2.15000    5.06     2.98   0.65064  1.0613
 2.20000    5.05     2.99   0.65094  1.0613
 2.25000    5.05     2.98   0.65090  1.0616
 2.30000    5.05     2.99   0.65074  1.0615
 2.35000    5.05     2.98   0.65077  1.0617
 2.40000    5.06     2.99   0.65069  1.0618
 2.45000    5.06     2.99   0.65068  1.0618
 2.50000    5.07     3.00   0.65025  1.0619
 2.55000    5.07     2.99   0.65038  1.0619
 2.60000    5.08     3.01   0.65052  1.0618
 2.65000    5.09     2.99   0.65047  1.0619
 2.70000    5.09     3.00   0.65028  1.0619
 2.75000    5.09     3.00   0.65032  1.0620
 2.80000    5.09     3.00   0.65032  1.0619
 2.85000    5.10     3.00   0.65015  1.0618
 2.90000    5.11     3.02   0.65039  1.0617
 2.95000    5.11     3.00   0.65019  1.0618
 3.00000    5.11     3.00   0.65013  1.0617
 3.05000    5.11     3.00   0.64987  1.0619
 3.10000    5.12     3.00   0.64998  1.0618
 3.15000    5.12     3.02   0.64979  1.0620
 3.20000    5.12     3.00   0.64987  1.0619
 3.25000    5.12     3.01   0.64988  1.0618
 3.30000    5.12     3.01   0.64967  1.0618
 3.35000    5.11     3.01   0.64950  1.0616
 3.40000    5.11     3.03   0.64945  1.0618
 3.45000    5.11     3.01   0.64941  1.0619
 3.50000    5.11     3.01   0.64943  1.0621
 3.55000    5.11     3.02   0.64924  1.0621
 3.60000    5.12     3.02   0.64915  1.0623
 3.65000    5.14     3.04   0.64907  1.0623
 3.70000    5.14     3.02   0.64903  1.0622
 3.75000    5.15     3.02   0.64912  1.0622
 3.80000    5.17     3.04   0.64890  1.0623
 3.85000    5.18     3.03   0.64906  1.0626
 3.90000    5.18     3.02   0.64880  1.0624
 3.95000    5.20     3.02   0.64860  1.0620
 4.00000    5.20     3.03   0.64871  1.0624
 4.00000    5.20     3.03   0.64864  1.0624
 3.95000    5.22     3.03   0.64867  1.0623
 3.90000    5.23     3.02   0.64904  1.0622
 3.85000    5.24     3.03   0.64881  1.0622
 3.80000    5.25     3.04   0.64934  1.0625
 3.75000    5.27     3.05   0.64925  1.0625
 3.70000    5.29     3.05   0.64957  1.0622
 3.65000    5.31     3.04   0.64977  1.0624
 3.60000    5.33     3.05   0.64977  1.0624
 3.55000    5.35     3.05   0.64993  1.0624
 3.50000    5.38     3.06   0.64979  1.0624
 3.45000    5.40     3.06   0.65019  1.0623
 3.40000    5.42     3.07   0.65008  1.0622
 3.35000    5.44     3.06   0.65029  1.0621
 3.30000    5.46     3.05   0.65030  1.0620
 3.25000    5.47     3.07   0.65038  1.0625
 3.20000    5.49     3.06   0.65050  1.0624
 3.15000    5.51     3.05   0.65077  1.0621
 3.10000    5.52     3.05   0.65074  1.0620
 3.05000    5.53     3.05   0.65090  1.0620
 3.00000    5.53     3.04   0.65057  1.0620
 2.95000    5.55     3.06   0.65079  1.0625
 2.90000    5.56     3.03   0.65106  1.0621
 2.85000    5.57     3.04   0.65135  1.0621
 2.80000    5.57     3.02   0.65108  1.0619
 2.75000    5.58     3.05   0.65129  1.0619
 2.70000    5.60     3.05   0.65137  1.0619
 2.65000    5.61     3.05   0.65136  1.0621
 2.60000    5.62     3.03   0.65151  1.0618
 2.55000    5.63     3.03   0.65154  1.0618
 2.50000    5.63     3.04   0.65163  1.0617
 2.45000    5.64     3.04   0.65153  1.0616
 2.40000    5.65     3.04   0.65172  1.0615
 2.35000    5.65     3.03   0.65163  1.0615
 2.30000    5.66     3.02   0.65156  1.0615
 2.25000    5.66     3.02   0.65149  1.0615
 2.20000    5.66     3.02   0.65128  1.0614
 2.15000    5.67     3.02   0.65158  1.0616
 2.10000    5.67     3.01   0.65139  1.0616
 2.05000    5.68     3.03   0.65131  1.0615
 2.00000    5.68     3.00   0.65130  1.0614
 1.95000    5.68     3.01   0.65093  1.0616
 1.90000    5.69     3.01   0.65052  1.0617
 1.85000    5.69     3.01   0.64992  1.0616
 1.80000    5.69     3.02   0.64959  1.0615
 1.75000    5.69     3.01   0.64916  1.0616
 1.70000    5.69     3.01   0.64861  1.0613
 1.65000    5.69     3.01   0.64826  1.0614
 1.60000    5.69     3.02   0.64814  1.0615
 1.55000    5.68     3.01   0.64773  1.0616
 1.50000    5.68     3.01   0.64809  1.0619
 1.45000    5.66     3.01   0.64888  1.0621
 1.40000    5.66     3.01   0.64991  1.0624
 1.35000    5.64     3.02   0.65095  1.0625
 1.30000    5.63     3.00   0.65143  1.0625
 1.25000    5.61     3.00   0.65248  1.0626
 1.20000    5.59     3.02   0.65295  1.0620
 1.15000    5.59     3.00   0.65342  1.0620
 1.10000    5.57     3.00   0.65346  1.0619
 1.05000    5.55     2.99   0.65405  1.0614
 1.00000    5.54     3.02   0.65408  1.0609
 0.95000    5.53     2.99   0.65440  1.0608
 0.90000    5.51     2.99   0.65472  1.0607
 0.85000    5.48     2.99   0.65490  1.0607
 0.80000    5.47     2.99   0.65544  1.0607
 0.75000    5.45     3.00   0.65537  1.0606
 0.70000    5.43     3.00   0.65554  1.0602
 0.65000    5.42     2.99   0.65581  1.0596
 0.60000    5.41     3.00   0.65564  1.0596
 0.55000    5.39     2.99   0.65589  1.0594
 0.50000    5.39     3.01   0.65598  1.0596
 0.45000    5.37     3.00   0.65617  1.0593
 0.40000    5.36     2.99   0.65611  1.0590
 0.35000    5.34     3.00   0.65647  1.0590
 0.30000    5.34     3.00   0.65658  1.0586
 0.25000    5.33     3.00   0.65679  1.0586
 0.20000    5.33     3.00   0.65671  1.0580
 0.15000    5.33     3.00   0.65721  1.0577
 0.10000    5.33     2.99   0.65749  1.0573
 0.05000    5.33     3.00   0.65753  1.0573
-0.00000    5.35     3.00   0.65762  1.0568
