 Field[T] Tsmpl[K] Tcntr[K] Signal   Mirror[MM]
 0.00000    5.27     2.95   0.59196  1.0258
 0.05000    5.26     2.96   0.59209  1.0262
 0.10000    5.23     2.94   0.59174  1.0264
 0.15000    5.21     2.95   0.59175  1.0263
 0.20000    5.18     2.92   0.59121  1.0264
 0.25000    5.14     2.91   0.59117  1.0269
 0.30000    5.10     2.91   0.59088  1.0275
 0.35000    5.06     2.88   0.59074  1.0278
 0.40000    5.02     2.91   0.59028  1.0281
 0.45000    4.99     2.86   0.58957  1.0283
 0.50000    4.95     2.88   0.58947  1.0282
 0.55000    4.92     2.88   0.58942  1.0286
 0.60000    4.90     2.88   0.58928  1.0291
 0.65000    4.87     2.86   0.58899  1.0291
 0.70000    4.84     2.87   0.58866  1.0294
 0.75000    4.82     2.88   0.58851  1.0297
 0.80000    4.82     2.90   0.58826  1.0298
 0.85000    4.80     2.89   0.58812  1.0298
 0.90000    4.78     2.89   0.58768  1.0300
 0.95000    4.77     2.89   0.58753  1.0303
 1.00000    4.76     2.91   0.58734  1.0304
 1.05000    4.74     2.88   0.58700  1.0308
 1.10000    4.73     2.88   0.58692  1.0305
 1.15000    4.72     2.90   0.58667  1.0308
 1.20000    4.71     2.90   0.58668  1.0311
 1.25000    4.71     2.92   0.58584  1.0310
 1.30000    4.72     2.91   0.58557  1.0311
 1.35000    4.72     2.88   0.58539  1.0312
 1.40000    4.72     2.92   0.58493  1.0312
 1.45000    4.72     2.92   0.58446  1.0312
 1.50000    4.73     2.92   0.58410  1.0314
 1.55000    4.74     2.94   0.58331  1.0315
 1.60000    4.75     2.94   0.58291  1.0313
 1.65000    4.76     2.97   0.58231  1.0314
 1.70000    4.77     2.96   0.58221  1.0314
 1.75000    4.78     2.96   0.58220  1.0312
 1.80000    4.79     2.98   0.58249  1.0311
 1.85000    4.80     2.97   0.58226  1.0310
 1.90000    4.80     2.97   0.58265  1.0310
 1.95000    4.80     2.98   0.58262  1.0309
 2.00000    4.80     2.97   0.58259  1.0310
 2.05000    4.79     2.98   0.58245  1.0310
 2.10000    4.79     2.98   0.58261  1.0311
 2.15000    4.78     2.98   0.58286  1.0312
 2.20000    4.77     3.01   0.58269  1.0310
 2.25000    4.77     2.99   0.58241  1.0309
 2.30000    4.76     2.99   0.58245  1.0310
 2.35000    4.75     2.99   0.58225  1.0312
 2.40000    4.74     3.00   0.58220  1.0312
 2.45000    4.74     3.00   0.58230  1.0311
 2.50000    4.74     2.99   0.58204  1.0312
 2.55000    4.74     3.00   0.58206  1.0314
 2.60000    4.75     3.00   0.58221  1.0313
 2.65000    4.75     3.01   0.58176  1.0312
 2.70000    4.76     3.01   0.58199  1.0310
 2.75000    4.77     3.01   0.58170  1.0314
 2.80000    4.78     3.01   0.58181  1.0315
 2.85000    4.79     3.02   0.58148  1.0317
 2.90000    4.80     3.01   0.58167  1.0316
 2.95000    4.81     3.03   0.58133  1.0316
 3.00000    4.82     3.02   0.58142  1.0316
 3.05000    4.82     3.03   0.58124  1.0316
 3.10000    4.83     3.03   0.58116  1.0317
 3.15000    4.84     3.04   0.58079  1.0315
 3.20000    4.85     3.06   0.58074  1.0316
 3.25000    4.87     3.03   0.58064  1.0315
 3.30000    4.88     3.04   0.58069  1.0317
 3.35000    4.88     3.04   0.58062  1.0319
 3.40000    4.90     3.05   0.58052  1.0322
 3.45000    4.91     3.05   0.58040  1.0323
 3.50000    4.92     3.05   0.58040  1.0323
 3.55000    4.92     3.04   0.58028  1.0323
 3.60000    4.93     3.06   0.58026  1.0323
 3.65000    4.93     3.04   0.57970  1.0325
 3.70000    4.94     3.05   0.58006  1.0323
 3.75000    4.95     3.07   0.58013  1.0321
 3.80000    4.96     3.06   0.57986  1.0322
 3.85000    4.97     3.07   0.57990  1.0325
 3.90000    4.97     3.05   0.58003  1.0327
 3.95000    4.97     3.05   0.57987  1.0323
 4.00000    4.98     3.06   0.57977  1.0325
 4.00000    4.99     3.06   0.57961  1.0327
 3.95000    4.99     3.06   0.57994  1.0326
 3.90000    5.00     3.07   0.58011  1.0326
 3.85000    5.02     3.08   0.58019  1.0326
 3.80000    5.04     3.09   0.58023  1.0327
 3.75000    5.07     3.10   0.58006  1.0330
 3.70000    5.11     3.12   0.58029  1.0330
 3.65000    5.14     3.09   0.58032  1.0330
 3.60000    5.17     3.11   0.58034  1.0329
 3.55000    5.20     3.11   0.58060  1.0331
 3.50000    5.23     3.11   0.58050  1.0329
 3.45000    5.26     3.11   0.58076  1.0328
 3.40000    5.28     3.11   0.58064  1.0332
 3.35000    5.30     3.12   0.58076  1.0332
 3.30000    5.32     3.10   0.58098  1.0331
 3.25000    5.34     3.11   0.58100  1.0330
 3.20000    5.36     3.12   0.58132  1.0328
 3.15000    5.37     3.09   0.58140  1.0329
 3.10000    5.39     3.09   0.58152  1.0330
 3.05000    5.40     3.08   0.58147  1.0329
 3.00000    5.40     3.07   0.58163  1.0330
 2.95000    5.41     3.08   0.58169  1.0332
 2.90000    5.42     3.08   0.58192  1.0330
 2.85000    5.43     3.07   0.58186  1.0333
 2.80000    5.44     3.08   0.58200  1.0336
 2.75000    5.46     3.06   0.58233  1.0333
 2.70000    5.46     3.06   0.58228  1.0334
 2.65000    5.47     3.05   0.58242  1.0334
 2.60000    5.47     3.04   0.58268  1.0336
 2.55000    5.47     3.05   0.58263  1.0339
 2.50000    5.48     3.05   0.58254  1.0341
 2.45000    5.49     3.05   0.58267  1.0340
 2.40000    5.50     3.05   0.58308  1.0338
 2.35000    5.50     3.05   0.58286  1.0338
 2.30000    5.52     3.03   0.58286  1.0338
 2.25000    5.52     3.03   0.58279  1.0338
 2.20000    5.53     3.04   0.58323  1.0336
 2.15000    5.54     3.04   0.58296  1.0337
 2.10000    5.55     3.02   0.58311  1.0337
 2.05000    5.56     3.02   0.58315  1.0337
 2.00000    5.57     3.02   0.58290  1.0336
 1.95000    5.58     3.02   0.58305  1.0335
 1.90000    5.59     3.03   0.58288  1.0336
 1.85000    5.60     3.01   0.58276  1.0334
 1.80000    5.61     3.01   0.58296  1.0333
 1.75000    5.61     3.01   0.58268  1.0333
 1.70000    5.62     3.03   0.58209  1.0333
 1.65000    5.62     3.02   0.58142  1.0332
 1.60000    5.63     3.01   0.58217  1.0334
 1.55000    5.63     3.02   0.58301  1.0336
 1.50000    5.62     3.01   0.58368  1.0336
 1.45000    5.62     3.02   0.58413  1.0336
 1.40000    5.61     3.02   0.58452  1.0338
 1.35000    5.61     3.00   0.58523  1.0337
 1.30000    5.60     2.99   0.58535  1.0334
 1.25000    5.59     3.01   0.58579  1.0333
 1.20000    5.57     3.00   0.58595  1.0331
 1.15000    5.56     3.01   0.58601  1.0328
 1.10000    5.55     3.00   0.58633  1.0328
 1.05000    5.53     2.99   0.58661  1.0327
 1.00000    5.52     2.99   0.58689  1.0326
 0.95000    5.51     3.02   0.58708  1.0324
 0.90000    5.51     3.00   0.58719  1.0319
 0.85000    5.50     2.99   0.58739  1.0317
 0.80000    5.49     3.00   0.58770  1.0317
 0.75000    5.48     3.00   0.58790  1.0315
 0.70000    5.47     3.00   0.58802  1.0313
 0.65000    5.46     3.01   0.58824  1.0313
 0.60000    5.45     3.00   0.58839  1.0311
 0.55000    5.43     3.00   0.58829  1.0310
 0.50000    5.42     3.00   0.58840  1.0308
 0.45000    5.41     3.00   0.58863  1.0303
 0.40000    5.41     3.00   0.58857  1.0300
 0.35000    5.41     2.99   0.58876  1.0297
 0.30000    5.40     3.00   0.58900  1.0292
 0.25000    5.39     2.99   0.58894  1.0289
 0.20000    5.39     3.00   0.58924  1.0289
 0.15000    5.39     2.99   0.58958  1.0286
 0.10000    5.39     2.99   0.58956  1.0284
 0.05000    5.39     3.01   0.58983  1.0280
-0.00000    5.39     3.00   0.59007  1.0277
