 Field[T] Tsmpl[K] Tcntr[K] Signal   Mirror[MM]
 0.00000    1.74     1.74   0.05337  -23.5369
 0.05000    1.74     1.74   0.05326  -23.5394
 0.10000    1.74     1.74   0.05274  -23.5449
 0.15000    1.74     1.74   0.05291  -23.5595
 0.20000    1.74     1.74   0.05349  -23.5736
 0.25000    1.74     1.74   0.05458  -23.5838
 0.30000    1.74     1.74   0.05549  -23.5880
 0.35000    1.74     1.74   0.05650  -23.5917
 0.40000    1.74     1.74   0.05698  -23.5925
 0.45000    1.74     1.74   0.05833  -23.5879
 0.50000    1.74     1.74   0.05875  -23.5838
 0.55000    1.74     1.74   0.05979  -23.5758
 0.60000    1.74     1.74   0.05992  -23.5681
 0.65000    1.74     1.74   0.05974  -23.5588
 0.70000    1.74     1.74   0.06014  -23.5555
 0.75000    1.74     1.74   0.06050  -23.5497
 0.80000    1.74     1.74   0.06005  -23.5444
 0.85000    1.74     1.74   0.06040  -23.5420
 0.90000    1.74     1.74   0.06009  -23.5401
 0.95000    1.74     1.74   0.06000  -23.5362
 1.00000    1.74     1.74   0.06032  -23.5335
 1.05000    1.74     1.74   0.05977  -23.5297
 1.10000    1.74     1.74   0.06020  -23.5294
 1.15000    1.74     1.74   0.05997  -23.5264
 1.20000    1.74     1.74   0.05997  -23.5277
 1.25000    1.74     1.74   0.05987  -23.5270
 1.30000    1.74     1.74   0.05984  -23.5245
 1.35000    1.74     1.74   0.05954  -23.5252
 1.40000    1.74     1.74   0.05989  -23.5240
 1.45000    1.74     1.74   0.05987  -23.5234
 1.50000    1.74     1.74   0.05954  -23.5214
 1.55000    1.74     1.74   0.05967  -23.5210
 1.60000    1.74     1.74   0.05932  -23.5204
 1.65000    1.74     1.74   0.05939  -23.5168
 1.70000    1.74     1.74   0.05934  -23.5186
 1.75000    1.74     1.74   0.05944  -23.5193
 1.80000    1.74     1.74   0.05937  -23.5185
 1.85000    1.74     1.74   0.05937  -23.5184
 1.90000    1.74     1.74   0.05920  -23.5175
 1.95000    1.74     1.74   0.05952  -23.5190
 2.00000    1.74     1.74   0.05923  -23.5169
 2.05000    1.74     1.74   0.05927  -23.5183
 2.10000    1.74     1.74   0.05930  -23.5167
 2.15000    1.74     1.74   0.05917  -23.5170
 2.20000    1.74     1.74   0.05934  -23.5181
 2.25000    1.74     1.74   0.05945  -23.5162
 2.30000    1.74     1.74   0.05908  -23.5160
 2.35000    1.74     1.74   0.05969  -23.5166
 2.40000    1.74     1.74   0.05928  -23.5151
 2.45000    1.74     1.74   0.05883  -23.5137
 2.50000    1.74     1.74   0.05917  -23.5115
 2.55000    1.74     1.74   0.05910  -23.5119
 2.60000    1.74     1.74   0.05902  -23.5129
 2.65000    1.74     1.74   0.05913  -23.5144
 2.70000    1.74     1.74   0.05935  -23.5126
 2.75000    1.74     1.74   0.05877  -23.5120
 2.80000    1.74     1.74   0.05920  -23.5140
 2.85000    1.74     1.74   0.05913  -23.5137
 2.90000    1.74     1.74   0.05945  -23.5153
 2.95000    1.74     1.74   0.05940  -23.5137
 3.00000    1.74     1.74   0.05875  -23.5120
 3.05000    1.74     1.74   0.05928  -23.5123
 3.10000    1.74     1.74   0.05922  -23.5126
 3.15000    1.74     1.74   0.05900  -23.5116
 3.20000    1.74     1.74   0.05922  -23.5136
 3.25000    1.74     1.74   0.05918  -23.5125
 3.30000    1.74     1.74   0.05908  -23.5120
 3.35000    1.74     1.74   0.05922  -23.5113
 3.40000    1.74     1.74   0.05875  -23.5091
 3.45000    1.74     1.74   0.05908  -23.5166
 3.50000    1.74     1.74   0.05925  -23.5144
 3.55000    1.74     1.74   0.05870  -23.5127
 3.60000    1.74     1.74   0.05910  -23.5139
 3.65000    1.74     1.74   0.05913  -23.5116
 3.70000    1.74     1.74   0.05897  -23.5115
 3.75000    1.74     1.74   0.05913  -23.5106
 3.80000    1.74     1.74   0.05920  -23.5101
 3.85000    1.74     1.74   0.05887  -23.5101
 3.90000    1.74     1.74   0.05915  -23.5128
 3.95000    1.74     1.74   0.05905  -23.5123
 4.00000    1.74     1.74   0.05895  -23.5124
 4.00000    1.74     1.74   0.05895  -23.5111
 3.95000    1.74     1.74   0.05875  -23.5106
 3.90000    1.74     1.74   0.05895  -23.5088
 3.85000    1.74     1.74   0.05912  -23.5071
 3.80000    1.74     1.74   0.05892  -23.5104
 3.75000    1.74     1.74   0.05870  -23.5062
 3.70000    1.74     1.74   0.05902  -23.5080
 3.65000    1.74     1.74   0.05890  -23.5070
 3.60000    1.74     1.74   0.05893  -23.5076
 3.55000    1.74     1.74   0.05925  -23.5078
 3.50000    1.74     1.74   0.05923  -23.5088
 3.45000    1.74     1.74   0.05918  -23.5100
 3.40000    1.74     1.74   0.05907  -23.5089
 3.35000    1.74     1.74   0.05883  -23.5088
 3.30000    1.74     1.74   0.05923  -23.5086
 3.25000    1.74     1.74   0.05930  -23.5080
 3.20000    1.74     1.74   0.05910  -23.5098
 3.15000    1.74     1.74   0.05908  -23.5081
 3.10000    1.74     1.74   0.05913  -23.5081
 3.05000    1.74     1.74   0.05873  -23.5080
 3.00000    1.74     1.74   0.05917  -23.5089
 2.95000    1.74     1.74   0.05903  -23.5085
 2.90000    1.74     1.74   0.05893  -23.5090
 2.85000    1.74     1.74   0.05922  -23.5093
 2.80000    1.74     1.74   0.05912  -23.5104
 2.75000    1.74     1.74   0.05917  -23.5110
 2.70000    1.74     1.74   0.05923  -23.5093
 2.65000    1.74     1.74   0.05888  -23.5108
 2.60000    1.74     1.74   0.05927  -23.5095
 2.55000    1.74     1.74   0.05907  -23.5064
 2.50000    1.74     1.74   0.05932  -23.5099
 2.45000    1.74     1.74   0.05900  -23.5095
 2.40000    1.74     1.74   0.05937  -23.5096
 2.35000    1.74     1.74   0.05887  -23.5070
 2.30000    1.74     1.74   0.05925  -23.5097
 2.25000    1.74     1.74   0.05947  -23.5081
 2.20000    1.74     1.74   0.05915  -23.5091
 2.15000    1.74     1.74   0.05925  -23.5084
 2.10000    1.74     1.74   0.05934  -23.5098
 2.05000    1.74     1.74   0.05910  -23.5089
 2.00000    1.74     1.74   0.05927  -23.5070
 1.95000    1.74     1.74   0.05902  -23.5093
 1.90000    1.74     1.74   0.05923  -23.5094
 1.85000    1.74     1.74   0.05935  -23.5099
 1.80000    1.74     1.74   0.05900  -23.5088
 1.75000    1.74     1.74   0.05928  -23.5091
 1.70000    1.74     1.74   0.05945  -23.5099
 1.65000    1.74     1.74   0.05893  -23.5107
 1.60000    1.74     1.74   0.05937  -23.5103
 1.55000    1.74     1.74   0.05957  -23.5113
 1.50000    1.74     1.74   0.05937  -23.5130
 1.45000    1.74     1.74   0.05942  -23.5118
 1.40000    1.74     1.74   0.05947  -23.5117
 1.35000    1.74     1.74   0.05957  -23.5141
 1.30000    1.74     1.74   0.05939  -23.5111
 1.25000    1.74     1.74   0.05990  -23.5162
 1.20000    1.74     1.74   0.05949  -23.5144
 1.15000    1.74     1.74   0.05979  -23.5165
 1.10000    1.74     1.74   0.05967  -23.5163
 1.05000    1.74     1.74   0.05984  -23.5183
 1.00000    1.74     1.74   0.05994  -23.5200
 0.95000    1.74     1.74   0.05959  -23.5218
 0.90000    1.74     1.74   0.05995  -23.5257
 0.85000    1.74     1.74   0.05992  -23.5273
 0.80000    1.74     1.74   0.05942  -23.5303
 0.75000    1.74     1.74   0.05974  -23.5354
 0.70000    1.74     1.74   0.05990  -23.5404
 0.65000    1.74     1.74   0.05964  -23.5465
 0.60000    1.74     1.74   0.05949  -23.5530
 0.55000    1.74     1.74   0.05934  -23.5620
 0.50000    1.74     1.74   0.05832  -23.5681
 0.45000    1.74     1.74   0.05798  -23.5752
 0.40000    1.74     1.74   0.05741  -23.5777
 0.35000    1.74     1.74   0.05616  -23.5787
 0.30000    1.74     1.74   0.05531  -23.5775
 0.25000    1.74     1.74   0.05459  -23.5713
 0.20000    1.74     1.74   0.05329  -23.5642
 0.15000    1.74     1.74   0.05296  -23.5513
 0.10000    1.74     1.74   0.05262  -23.5313
 0.05000    1.74     1.74   0.05255  -23.5252
 -0.00000    1.74     1.74   0.05317  -23.5231
