 Field[T] Tsmpl[K] Tcntr[K] Signal   Mirror[MM]
 0.00000    1.79     1.79   0.00771  -24.3836
 0.05000    1.79     1.79   0.00774  -24.3836
 0.10000    1.79     1.79   0.00775  -24.3837
 0.15000    1.79     1.79   0.00770  -24.3837
 0.20000    1.79     1.79   0.00766  -24.3835
 0.25000    1.79     1.79   0.00770  -24.3836
 0.30000    1.79     1.79   0.00770  -24.3835
 0.35000    1.79     1.79   0.00759  -24.3834
 0.40000    1.79     1.79   0.00760  -24.3834
 0.45000    1.79     1.79   0.00766  -24.3831
 0.50000    1.79     1.79   0.00756  -24.3829
 0.55000    1.79     1.79   0.00753  -24.3826
 0.60000    1.79     1.79   0.00749  -24.3818
 0.65000    1.79     1.79   0.00746  -24.3811
 0.70000    1.79     1.79   0.00738  -24.3800
 0.75000    1.79     1.79   0.00729  -24.3788
 0.80000    1.79     1.79   0.00727  -24.3765
 0.85000    1.79     1.79   0.00710  -24.3741
 0.90000    1.79     1.79   0.00680  -24.3734
 0.95000    1.79     1.79   0.00659  -24.3778
 1.00000    1.79     1.79   0.00647  -24.3835
 1.05000    1.79     1.79   0.00635  -24.3895
 1.10000    1.79     1.79   0.00635  -24.3944
 1.15000    1.79     1.79   0.00640  -24.3991
 1.20000    1.79     1.79   0.00644  -24.4032
 1.25000    1.79     1.79   0.00641  -24.4076
 1.30000    1.79     1.79   0.00649  -24.4102
 1.35000    1.79     1.79   0.00662  -24.4118
 1.40000    1.79     1.79   0.00669  -24.4131
 1.45000    1.79     1.79   0.00672  -24.4138
 1.50000    1.79     1.79   0.00681  -24.4137
 1.55000    1.79     1.79   0.00687  -24.4140
 1.60000    1.79     1.79   0.00684  -24.4141
 1.65000    1.79     1.79   0.00687  -24.4143
 1.70000    1.79     1.79   0.00698  -24.4140
 1.75000    1.79     1.79   0.00695  -24.4143
 1.80000    1.79     1.79   0.00694  -24.4146
 1.85000    1.79     1.79   0.00699  -24.4148
 1.90000    1.79     1.79   0.00703  -24.4150
 1.95000    1.79     1.79   0.00700  -24.4149
 2.00000    1.79     1.79   0.00698  -24.4150
 2.05000    1.79     1.79   0.00707  -24.4146
 2.10000    1.79     1.79   0.00705  -24.4146
 2.15000    1.79     1.79   0.00703  -24.4149
 2.20000    1.79     1.79   0.00708  -24.4151
 2.25000    1.79     1.79   0.00713  -24.4148
 2.30000    1.79     1.79   0.00709  -24.4150
 2.35000    1.79     1.79   0.00707  -24.4150
 2.40000    1.79     1.79   0.00714  -24.4148
 2.45000    1.79     1.79   0.00717  -24.4145
 2.50000    1.79     1.79   0.00714  -24.4147
 2.55000    1.79     1.79   0.00713  -24.4148
 2.60000    1.79     1.79   0.00718  -24.4148
 2.65000    1.79     1.79   0.00716  -24.4144
 2.70000    1.79     1.79   0.00712  -24.4149
 2.75000    1.79     1.79   0.00718  -24.4145
 2.80000    1.79     1.79   0.00720  -24.4144
 2.85000    1.79     1.79   0.00714  -24.4145
 2.90000    1.79     1.79   0.00709  -24.4146
 2.95000    1.79     1.79   0.00721  -24.4142
 3.00000    1.79     1.79   0.00719  -24.4142
 3.05000    1.79     1.79   0.00716  -24.4142
 3.10000    1.79     1.79   0.00717  -24.4143
 3.15000    1.79     1.79   0.00723  -24.4144
 3.20000    1.79     1.79   0.00715  -24.4145
 3.25000    1.79     1.79   0.00715  -24.4144
 3.30000    1.79     1.79   0.00720  -24.4141
 3.35000    1.79     1.79   0.00721  -24.4143
 3.40000    1.79     1.79   0.00714  -24.4148
 3.45000    1.79     1.79   0.00718  -24.4141
 3.50000    1.79     1.79   0.00723  -24.4142
 3.55000    1.79     1.79   0.00718  -24.4144
 3.60000    1.79     1.79   0.00717  -24.4143
 3.65000    1.79     1.79   0.00720  -24.4142
 3.70000    1.79     1.79   0.00722  -24.4145
 3.75000    1.79     1.79   0.00713  -24.4147
 3.80000    1.79     1.79   0.00717  -24.4140
 3.85000    1.79     1.79   0.00720  -24.4144
 3.90000    1.79     1.79   0.00719  -24.4143
 3.95000    1.79     1.79   0.00714  -24.4149
 4.00000    1.79     1.79   0.00717  -24.4146
 4.00000    1.79     1.79   0.00723  -24.4142
 3.95000    1.79     1.79   0.00716  -24.4147
 3.90000    1.79     1.79   0.00715  -24.4150
 3.85000    1.79     1.79   0.00720  -24.4146
 3.80000    1.79     1.79   0.00720  -24.4149
 3.75000    1.79     1.79   0.00715  -24.4152
 3.70000    1.79     1.79   0.00717  -24.4147
 3.65000    1.79     1.79   0.00720  -24.4151
 3.60000    1.79     1.79   0.00718  -24.4150
 3.55000    1.79     1.79   0.00713  -24.4155
 3.50000    1.79     1.79   0.00718  -24.4151
 3.45000    1.79     1.79   0.00720  -24.4153
 3.40000    1.79     1.79   0.00715  -24.4154
 3.35000    1.79     1.79   0.00717  -24.4156
 3.30000    1.79     1.79   0.00719  -24.4152
 3.25000    1.79     1.79   0.00718  -24.4154
 3.20000    1.79     1.79   0.00713  -24.4156
 3.15000    1.79     1.79   0.00718  -24.4157
 3.10000    1.79     1.79   0.00722  -24.4158
 3.05000    1.79     1.79   0.00717  -24.4161
 3.00000    1.79     1.79   0.00711  -24.4162
 2.95000    1.79     1.79   0.00718  -24.4161
 2.90000    1.79     1.79   0.00717  -24.4163
 2.85000    1.79     1.79   0.00715  -24.4162
 2.80000    1.79     1.79   0.00715  -24.4168
 2.75000    1.79     1.79   0.00720  -24.4166
 2.70000    1.79     1.79   0.00715  -24.4169
 2.65000    1.79     1.79   0.00713  -24.4170
 2.60000    1.79     1.79   0.00712  -24.4171
 2.55000    1.79     1.79   0.00717  -24.4168
 2.50000    1.79     1.79   0.00710  -24.4174
 2.45000    1.79     1.79   0.00709  -24.4174
 2.40000    1.79     1.79   0.00711  -24.4177
 2.35000    1.79     1.79   0.00711  -24.4175
 2.30000    1.79     1.79   0.00705  -24.4181
 2.25000    1.79     1.79   0.00711  -24.4174
 2.20000    1.79     1.79   0.00711  -24.4177
 2.15000    1.79     1.79   0.00704  -24.4177
 2.10000    1.79     1.79   0.00705  -24.4175
 2.05000    1.79     1.79   0.00705  -24.4175
 2.00000    1.79     1.79   0.00704  -24.4175
 1.95000    1.79     1.79   0.00696  -24.4178
 1.90000    1.79     1.79   0.00701  -24.4172
 1.85000    1.79     1.79   0.00700  -24.4172
 1.80000    1.79     1.79   0.00698  -24.4174
 1.75000    1.79     1.79   0.00690  -24.4174
 1.70000    1.79     1.79   0.00693  -24.4170
 1.65000    1.79     1.79   0.00693  -24.4169
 1.60000    1.79     1.79   0.00685  -24.4168
 1.55000    1.79     1.79   0.00682  -24.4167
 1.50000    1.79     1.79   0.00683  -24.4163
 1.45000    1.79     1.79   0.00674  -24.4165
 1.40000    1.79     1.79   0.00663  -24.4161
 1.35000    1.79     1.79   0.00662  -24.4150
 1.30000    1.79     1.79   0.00654  -24.4130
 1.25000    1.79     1.79   0.00643  -24.4102
 1.20000    1.79     1.79   0.00635  -24.4066
 1.15000    1.79     1.79   0.00640  -24.4018
 1.10000    1.79     1.79   0.00640  -24.3973
 1.05000    1.79     1.79   0.00634  -24.3922
 1.00000    1.79     1.79   0.00641  -24.3863
 0.95000    1.79     1.79   0.00658  -24.3805
 0.90000    1.79     1.79   0.00679  -24.3760
 0.85000    1.79     1.79   0.00703  -24.3759
 0.80000    1.79     1.79   0.00725  -24.3782
 0.75000    1.79     1.79   0.00737  -24.3800
 0.70000    1.79     1.79   0.00735  -24.3813
 0.65000    1.79     1.79   0.00739  -24.3825
 0.60000    1.79     1.79   0.00750  -24.3832
 0.55000    1.79     1.79   0.00751  -24.3839
 0.50000    1.79     1.79   0.00751  -24.3846
 0.45000    1.79     1.79   0.00762  -24.3841
 0.40000    1.79     1.79   0.00767  -24.3845
 0.35000    1.79     1.79   0.00762  -24.3846
 0.30000    1.79     1.79   0.00761  -24.3843
 0.25000    1.79     1.79   0.00768  -24.3847
 0.20000    1.79     1.79   0.00770  -24.3839
 0.15000    1.79     1.79   0.00766  -24.3838
 0.10000    1.79     1.79   0.00770  -24.3838
 0.05000    1.79     1.79   0.00773  -24.3839
 -0.00000    1.79     1.79   0.00773  -24.3841
