 Field[T] Tsmpl[K] Tcntr[K] Signal   Mirror[MM]
 0.00000    4.77     2.97   2.55249  1.7708
 0.05000    4.77     2.97   2.55139  1.7707
 0.10000    4.77     2.98   2.54927  1.7711
 0.15000    4.77     2.98   2.54875  1.7708
 0.20000    4.78     2.95   2.54809  1.7703
 0.25000    4.77     2.95   2.54794  1.7704
 0.30000    4.76     2.96   2.55297  1.7693
 0.35000    4.77     2.96   2.55525  1.7692
 0.40000    4.77     2.96   2.55442  1.7691
 0.45000    4.77     2.92   2.56084  1.7690
 0.50000    4.74     2.91   2.56223  1.7692
 0.55000    4.72     2.90   2.56281  1.7696
 0.60000    4.69     2.87   2.56629  1.7694
 0.65000    4.65     2.87   2.56593  1.7698
 0.70000    4.62     2.87   2.56548  1.7701
 0.75000    4.59     2.85   2.56286  1.7715
 0.80000    4.57     2.84   2.56535  1.7713
 0.85000    4.54     2.85   2.56500  1.7708
 0.90000    4.51     2.84   2.56571  1.7714
 0.95000    4.49     2.86   2.56364  1.7720
 1.00000    4.48     2.86   2.56650  1.7719
 1.05000    4.47     2.86   2.56175  1.7724
 1.10000    4.45     2.86   2.56283  1.7719
 1.15000    4.44     2.86   2.56428  1.7716
 1.20000    4.44     2.87   2.56156  1.7725
 1.25000    4.45     2.88   2.56665  1.7714
 1.30000    4.45     2.90   2.56174  1.7720
 1.35000    4.46     2.91   2.56422  1.7721
 1.40000    4.47     2.88   2.56318  1.7725
 1.45000    4.47     2.90   2.56337  1.7727
 1.50000    4.48     2.91   2.56267  1.7727
 1.55000    4.49     2.91   2.55853  1.7731
 1.60000    4.49     2.91   2.55867  1.7730
 1.65000    4.48     2.90   2.55989  1.7729
 1.70000    4.47     2.92   2.55920  1.7731
 1.75000    4.46     2.91   2.56050  1.7726
 1.80000    4.45     2.94   2.55798  1.7731
 1.85000    4.45     2.93   2.55794  1.7732
 1.90000    4.44     2.94   2.55975  1.7729
 1.95000    4.43     2.95   2.55832  1.7730
 2.00000    4.43     2.95   2.55947  1.7731
 2.00000    4.43     2.96   2.56127  1.7724
 1.95000    4.42     2.96   2.55822  1.7730
 1.90000    4.42     2.97   2.55843  1.7736
 1.85000    4.42     2.97   2.55792  1.7736
 1.80000    4.41     2.98   2.55962  1.7729
 1.75000    4.41     2.97   2.55885  1.7730
 1.70000    4.41     2.98   2.55762  1.7736
 1.65000    4.40     2.99   2.56105  1.7717
 1.60000    4.40     2.98   2.56294  1.7722
 1.55000    4.40     2.98   2.56219  1.7723
 1.50000    4.40     2.98   2.56145  1.7721
 1.45000    4.42     2.99   2.55902  1.7724
 1.40000    4.41     2.99   2.56000  1.7726
 1.35000    4.42     2.99   2.55875  1.7724
 1.30000    4.42     3.00   2.55959  1.7723
 1.25000    4.42     3.00   2.55579  1.7734
 1.20000    4.43     3.02   2.55759  1.7727
 1.15000    4.43     3.01   2.55927  1.7722
 1.10000    4.43     3.02   2.56061  1.7722
 1.05000    4.44     3.02   2.56077  1.7720
 1.00000    4.45     3.02   2.55794  1.7722
 0.95000    4.45     3.03   2.55759  1.7715
 0.90000    4.46     3.02   2.55958  1.7720
 0.85000    4.47     3.02   2.56037  1.7716
 0.80000    4.47     3.02   2.55877  1.7716
 0.75000    4.47     3.01   2.55965  1.7709
 0.70000    4.48     3.03   2.55529  1.7709
 0.65000    4.48     3.02   2.55752  1.7695
 0.60000    4.49     3.02   2.55485  1.7696
 0.55000    4.49     3.01   2.55520  1.7691
 0.50000    4.49     3.02   2.55195  1.7692
 0.45000    4.49     3.01   2.55109  1.7688
 0.40000    4.49     3.00   2.54799  1.7683
 0.35000    4.50     3.01   2.54362  1.7688
 0.30000    4.50     3.00   2.54202  1.7692
 0.25000    4.50     3.01   2.54053  1.7693
 0.20000    4.51     3.01   2.53776  1.7703
 0.15000    4.51     3.01   2.53552  1.7708
 0.10000    4.51     3.01   2.53765  1.7706
 0.05000    4.51     3.00   2.53820  1.7703
-0.00000    4.51     3.03   2.53647  1.7715
