 Field[T] Tsmpl[K] Tcntr[K] Signal   Mirror[MM]
 0.00000    4.50     2.99   0.96090  1.5476
 0.05000    4.50     2.98   0.96144  1.5476
 0.10000    4.48     2.98   0.96231  1.5472
 0.15000    4.48     3.00   0.96332  1.5473
 0.20000    4.48     2.99   0.96341  1.5471
 0.25000    4.47     2.98   0.96467  1.5460
 0.30000    4.47     2.97   0.96499  1.5465
 0.35000    4.47     3.00   0.96644  1.5462
 0.40000    4.47     2.97   0.96774  1.5454
 0.45000    4.47     2.99   0.97026  1.5445
 0.50000    4.47     2.98   0.97310  1.5445
 0.55000    4.47     2.98   0.97524  1.5451
 0.60000    4.47     2.99   0.97733  1.5461
 0.65000    4.47     2.99   0.97989  1.5453
 0.70000    4.47     2.98   0.98181  1.5453
 0.75000    4.47     2.98   0.98148  1.5465
 0.80000    4.47     2.99   0.98175  1.5468
 0.85000    4.47     2.99   0.98050  1.5484
 0.90000    4.47     2.99   0.98213  1.5477
 0.95000    4.46     2.98   0.98316  1.5477
 1.00000    4.46     2.98   0.98263  1.5487
 1.05000    4.46     2.98   0.98396  1.5479
 1.10000    4.45     2.96   0.98415  1.5486
 1.15000    4.43     2.95   0.98445  1.5486
 1.20000    4.43     2.96   0.98433  1.5497
 1.25000    4.43     2.96   0.98474  1.5480
 1.30000    4.42     2.98   0.98442  1.5488
 1.35000    4.43     2.97   0.98364  1.5501
 1.40000    4.43     2.97   0.98401  1.5498
 1.45000    4.43     2.95   0.98369  1.5497
 1.50000    4.42     2.95   0.98395  1.5503
 1.55000    4.41     2.96   0.98426  1.5508
 1.60000    4.41     2.96   0.98527  1.5495
 1.65000    4.41     2.98   0.98473  1.5499
 1.70000    4.41     2.97   0.98442  1.5499
 1.75000    4.40     2.98   0.98480  1.5502
 1.80000    4.39     2.98   0.98453  1.5503
 1.85000    4.39     2.98   0.98538  1.5499
 1.90000    4.39     2.97   0.98592  1.5502
 1.95000    4.39     2.98   0.98587  1.5504
 2.00000    4.39     3.00   0.98477  1.5503
 2.00000    4.39     2.98   0.98498  1.5506
 1.95000    4.38     2.99   0.98551  1.5501
 1.90000    4.37     2.99   0.98576  1.5502
 1.85000    4.37     2.99   0.98414  1.5508
 1.80000    4.37     2.99   0.98645  1.5502
 1.75000    4.38     2.99   0.98494  1.5504
 1.70000    4.38     3.00   0.98508  1.5508
 1.65000    4.39     3.00   0.98478  1.5501
 1.60000    4.39     3.00   0.98433  1.5506
 1.55000    4.39     3.00   0.98494  1.5501
 1.50000    4.40     3.01   0.98457  1.5503
 1.45000    4.41     3.01   0.98531  1.5503
 1.40000    4.42     3.02   0.98474  1.5506
 1.35000    4.43     3.02   0.98476  1.5499
 1.30000    4.44     3.02   0.98563  1.5492
 1.25000    4.45     3.02   0.98473  1.5497
 1.20000    4.45     3.03   0.98585  1.5492
 1.15000    4.46     3.02   0.98529  1.5487
 1.10000    4.47     3.03   0.98499  1.5492
 1.05000    4.48     3.05   0.98421  1.5486
 1.00000    4.49     3.03   0.98420  1.5486
 0.95000    4.49     3.03   0.98456  1.5483
 0.90000    4.49     3.03   0.98385  1.5481
 0.85000    4.49     3.02   0.98443  1.5479
 0.80000    4.50     3.02   0.98292  1.5483
 0.75000    4.50     3.03   0.98318  1.5474
 0.70000    4.51     3.02   0.98327  1.5474
 0.65000    4.51     3.02   0.98180  1.5473
 0.60000    4.52     3.02   0.98187  1.5461
 0.55000    4.53     3.03   0.98050  1.5454
 0.50000    4.54     3.02   0.97823  1.5455
 0.45000    4.55     3.02   0.97570  1.5453
 0.40000    4.55     3.02   0.97387  1.5458
 0.35000    4.55     3.02   0.97267  1.5466
 0.30000    4.55     3.01   0.97157  1.5472
 0.25000    4.55     3.02   0.97169  1.5472
 0.20000    4.55     3.02   0.97195  1.5479
 0.15000    4.55     3.01   0.97170  1.5481
 0.10000    4.56     3.02   0.97203  1.5482
 0.05000    4.56     3.01   0.97174  1.5477
-0.00000    4.55     3.01   0.97215  1.5486
