 Field[T] Tsmpl[K] Tcntr[K] Signal   Mirror[MM]
 0.00000    5.00     2.99   0.94912  1.4954
 0.05000    5.01     3.00   0.94898  1.4953
 0.10000    5.01     3.00   0.94948  1.4950
 0.15000    5.00     3.00   0.94944  1.4951
 0.20000    5.01     2.99   0.95011  1.4949
 0.25000    5.00     2.99   0.94996  1.4949
 0.30000    5.00     2.99   0.95027  1.4948
 0.35000    5.00     3.00   0.94963  1.4948
 0.40000    4.99     2.99   0.94879  1.4949
 0.45000    4.99     2.99   0.94821  1.4949
 0.50000    4.99     3.01   0.94804  1.4945
 0.55000    4.99     2.99   0.94774  1.4945
 0.60000    4.98     2.99   0.94752  1.4945
 0.65000    4.98     2.99   0.94711  1.4942
 0.70000    4.98     3.00   0.94610  1.4939
 0.75000    4.98     2.99   0.94466  1.4939
 0.80000    4.98     2.98   0.94428  1.4932
 0.85000    4.98     2.98   0.94375  1.4924
 0.90000    4.98     2.98   0.94475  1.4917
 0.95000    4.98     3.00   0.94707  1.4910
 1.00000    4.98     2.98   0.95047  1.4908
 1.05000    4.98     2.98   0.95437  1.4905
 1.10000    4.98     2.99   0.95741  1.4908
 1.15000    4.98     2.99   0.95976  1.4912
 1.20000    4.98     3.00   0.96095  1.4915
 1.25000    4.98     2.99   0.96140  1.4916
 1.30000    4.99     2.98   0.96094  1.4921
 1.35000    4.99     2.98   0.96191  1.4925
 1.40000    4.99     2.98   0.96257  1.4924
 1.45000    5.00     2.98   0.96342  1.4927
 1.50000    5.00     2.98   0.96285  1.4929
 1.55000    5.01     2.99   0.96304  1.4931
 1.60000    5.02     2.99   0.96275  1.4932
 1.65000    5.03     2.99   0.96330  1.4932
 1.70000    5.05     2.99   0.96428  1.4932
 1.75000    5.06     2.99   0.96413  1.4931
 1.80000    5.07     2.99   0.96388  1.4930
 1.85000    5.07     3.00   0.96405  1.4931
 1.90000    5.09     2.98   0.96379  1.4935
 1.95000    5.09     2.99   0.96338  1.4936
 2.00000    5.09     2.99   0.96356  1.4937
 2.05000    5.10     3.00   0.96343  1.4938
 2.10000    5.10     3.00   0.96384  1.4939
 2.15000    5.11     3.00   0.96396  1.4938
 2.20000    5.11     3.00   0.96412  1.4940
 2.25000    5.11     3.00   0.96385  1.4941
 2.30000    5.12     3.01   0.96360  1.4939
 2.35000    5.12     3.01   0.96325  1.4941
 2.40000    5.11     2.99   0.96273  1.4944
 2.45000    5.10     3.01   0.96281  1.4942
 2.50000    5.09     3.00   0.96319  1.4942
 2.55000    5.09     3.00   0.96290  1.4945
 2.60000    5.07     3.00   0.96319  1.4944
 2.65000    5.06     3.00   0.96278  1.4944
 2.70000    5.05     3.00   0.96278  1.4945
 2.75000    5.04     3.02   0.96317  1.4944
 2.80000    5.04     3.00   0.96278  1.4945
 2.85000    5.04     3.00   0.96410  1.4946
 2.90000    5.04     3.01   0.96327  1.4949
 2.95000    5.05     3.02   0.96349  1.4947
 3.00000    5.05     3.04   0.96365  1.4947
 3.00000    5.06     3.03   0.96348  1.4946
 2.95000    5.07     3.03   0.96321  1.4946
 2.90000    5.08     3.03   0.96284  1.4946
 2.85000    5.09     3.03   0.96311  1.4947
 2.80000    5.10     3.03   0.96278  1.4947
 2.75000    5.11     3.05   0.96269  1.4944
 2.70000    5.13     3.03   0.96297  1.4944
 2.65000    5.14     3.04   0.96297  1.4944
 2.60000    5.15     3.03   0.96304  1.4945
 2.55000    5.16     3.03   0.96287  1.4948
 2.50000    5.17     3.03   0.96311  1.4953
 2.45000    5.18     3.05   0.96342  1.4949
 2.40000    5.18     3.04   0.96352  1.4949
 2.35000    5.18     3.04   0.96311  1.4950
 2.30000    5.18     3.05   0.96396  1.4945
 2.25000    5.19     3.04   0.96391  1.4944
 2.20000    5.18     3.04   0.96407  1.4944
 2.15000    5.18     3.04   0.96445  1.4942
 2.10000    5.18     3.05   0.96413  1.4946
 2.05000    5.18     3.03   0.96408  1.4943
 2.00000    5.18     3.04   0.96393  1.4943
 1.95000    5.17     3.04   0.96443  1.4940
 1.90000    5.17     3.03   0.96441  1.4941
 1.85000    5.17     3.04   0.96400  1.4939
 1.80000    5.17     3.05   0.96469  1.4939
 1.75000    5.18     3.04   0.96487  1.4938
 1.70000    5.18     3.04   0.96474  1.4934
 1.65000    5.19     3.02   0.96498  1.4934
 1.60000    5.19     3.03   0.96482  1.4934
 1.55000    5.19     3.03   0.96457  1.4936
 1.50000    5.20     3.03   0.96522  1.4934
 1.45000    5.20     3.02   0.96497  1.4930
 1.40000    5.20     3.03   0.96428  1.4931
 1.35000    5.21     3.02   0.96352  1.4928
 1.30000    5.22     3.02   0.96332  1.4925
 1.25000    5.22     3.02   0.96314  1.4923
 1.20000    5.24     3.02   0.96172  1.4920
 1.15000    5.25     3.00   0.96085  1.4919
 1.10000    5.26     3.02   0.95951  1.4915
 1.05000    5.28     3.02   0.95684  1.4914
 1.00000    5.28     3.02   0.95383  1.4909
 0.95000    5.30     3.01   0.94958  1.4916
 0.90000    5.30     3.01   0.94741  1.4925
 0.85000    5.30     3.00   0.94759  1.4929
 0.80000    5.30     3.00   0.94684  1.4936
 0.75000    5.30     3.01   0.94760  1.4939
 0.70000    5.30     2.99   0.94830  1.4940
 0.65000    5.29     3.00   0.94816  1.4947
 0.60000    5.28     3.00   0.94926  1.4949
 0.55000    5.28     3.00   0.95020  1.4950
 0.50000    5.28     3.02   0.95068  1.4952
 0.45000    5.28     2.99   0.95124  1.4951
 0.40000    5.28     3.00   0.95161  1.4953
 0.35000    5.27     2.99   0.95277  1.4952
 0.30000    5.26     3.00   0.95412  1.4952
 0.25000    5.25     3.01   0.95354  1.4955
 0.20000    5.24     3.00   0.95365  1.4955
 0.15000    5.22     3.01   0.95322  1.4956
 0.10000    5.21     3.00   0.95343  1.4958
 0.05000    5.19     2.99   0.95324  1.4958
-0.00000    5.18     2.99   0.95351  1.4956
