 Field[T] Tsmpl[K] Tcntr[K] Signal   Mirror[MM]
 0.00000    4.98     2.99   0.60481  3.3464
 0.05000    4.98     2.99   0.60425  3.3461
 0.10000    4.98     2.99   0.60318  3.3458
 0.15000    4.98     2.99   0.60244  3.3459
 0.20000    4.98     3.00   0.60114  3.3459
 0.25000    4.98     2.98   0.60008  3.3457
 0.30000    4.98     2.99   0.59990  3.3454
 0.35000    4.98     2.99   0.59896  3.3454
 0.40000    4.98     3.01   0.59802  3.3454
 0.45000    4.99     2.99   0.59765  3.3450
 0.50000    5.00     2.99   0.59712  3.3448
 0.55000    5.01     2.98   0.59629  3.3448
 0.60000    5.01     2.99   0.59611  3.3444
 0.65000    5.00     3.00   0.59615  3.3441
 0.70000    5.01     2.98   0.59634  3.3437
 0.75000    5.00     2.98   0.59680  3.3433
 0.80000    5.00     3.00   0.59753  3.3438
 0.85000    5.00     2.98   0.59841  3.3441
 0.90000    4.99     3.00   0.59843  3.3444
 0.95000    4.99     2.97   0.59840  3.3447
 1.00000    4.98     2.98   0.59742  3.3449
 1.05000    4.98     2.99   0.59705  3.3451
 1.10000    4.98     2.97   0.59670  3.3455
 1.15000    4.97     2.97   0.59634  3.3455
 1.20000    4.97     2.98   0.59644  3.3454
 1.25000    4.96     2.97   0.59598  3.3458
 1.30000    4.96     2.98   0.59615  3.3456
 1.35000    4.96     2.97   0.59547  3.3460
 1.40000    4.96     2.97   0.59571  3.3458
 1.45000    4.97     2.99   0.59559  3.3459
 1.50000    4.98     2.97   0.59506  3.3461
 1.55000    4.99     2.97   0.59489  3.3464
 1.60000    4.99     2.97   0.59495  3.3465
 1.65000    5.01     2.99   0.59460  3.3464
 1.70000    5.02     2.98   0.59428  3.3465
 1.75000    5.03     2.98   0.59437  3.3465
 1.80000    5.04     3.00   0.59422  3.3464
 1.85000    5.04     2.99   0.59401  3.3465
 1.90000    5.05     2.99   0.59437  3.3468
 1.95000    5.05     2.99   0.59419  3.3467
 2.00000    5.05     2.99   0.59432  3.3467
 2.05000    5.05     3.00   0.59425  3.3469
 2.10000    5.05     2.99   0.59460  3.3468
 2.15000    5.04     2.99   0.59437  3.3470
 2.20000    5.03     3.00   0.59455  3.3470
 2.25000    5.02     2.99   0.59436  3.3470
 2.30000    5.01     2.99   0.59365  3.3473
 2.35000    4.99     3.00   0.59385  3.3470
 2.40000    4.98     2.99   0.59359  3.3471
 2.45000    4.97     3.00   0.59339  3.3471
 2.50000    4.95     2.99   0.59330  3.3473
 2.55000    4.95     3.00   0.59305  3.3474
 2.60000    4.94     2.99   0.59333  3.3472
 2.65000    4.94     3.00   0.59332  3.3474
 2.70000    4.94     3.02   0.59332  3.3472
 2.75000    4.95     3.00   0.59316  3.3474
 2.80000    4.96     3.00   0.59324  3.3473
 2.85000    4.97     3.00   0.59329  3.3473
 2.90000    4.97     3.00   0.59303  3.3475
 2.95000    4.98     3.01   0.59315  3.3475
 3.00000    4.99     3.02   0.59299  3.3475
 3.00000    4.99     3.01   0.59308  3.3474
 2.95000    5.00     3.01   0.59316  3.3473
 2.90000    5.02     3.04   0.59294  3.3475
 2.85000    5.04     3.02   0.59353  3.3473
 2.80000    5.06     3.02   0.59334  3.3473
 2.75000    5.08     3.03   0.59333  3.3475
 2.70000    5.11     3.03   0.59360  3.3475
 2.65000    5.13     3.04   0.59354  3.3475
 2.60000    5.15     3.04   0.59374  3.3473
 2.55000    5.16     3.05   0.59400  3.3473
 2.50000    5.17     3.04   0.59385  3.3474
 2.45000    5.17     3.05   0.59416  3.3473
 2.40000    5.18     3.04   0.59430  3.3472
 2.35000    5.18     3.06   0.59436  3.3472
 2.30000    5.19     3.04   0.59413  3.3473
 2.25000    5.18     3.04   0.59401  3.3473
 2.20000    5.18     3.05   0.59441  3.3470
 2.15000    5.18     3.04   0.59410  3.3472
 2.10000    5.17     3.04   0.59454  3.3471
 2.05000    5.17     3.03   0.59470  3.3470
 2.00000    5.16     3.04   0.59448  3.3469
 1.95000    5.16     3.03   0.59474  3.3468
 1.90000    5.16     3.03   0.59439  3.3467
 1.85000    5.15     3.03   0.59466  3.3467
 1.80000    5.15     3.03   0.59471  3.3468
 1.75000    5.15     3.03   0.59471  3.3469
 1.70000    5.16     3.02   0.59525  3.3468
 1.65000    5.16     3.02   0.59507  3.3468
 1.60000    5.16     3.02   0.59446  3.3468
 1.55000    5.16     3.02   0.59497  3.3466
 1.50000    5.16     3.03   0.59503  3.3465
 1.45000    5.17     3.02   0.59525  3.3464
 1.40000    5.18     3.02   0.59511  3.3464
 1.35000    5.18     3.01   0.59531  3.3465
 1.30000    5.18     3.01   0.59518  3.3465
 1.25000    5.19     3.04   0.59526  3.3463
 1.20000    5.20     3.01   0.59498  3.3463
 1.15000    5.21     3.01   0.59539  3.3462
 1.10000    5.22     3.00   0.59548  3.3459
 1.05000    5.23     3.02   0.59554  3.3456
 1.00000    5.24     3.02   0.59565  3.3453
 0.95000    5.25     3.00   0.59534  3.3453
 0.90000    5.24     3.02   0.59532  3.3450
 0.85000    5.24     3.01   0.59512  3.3446
 0.80000    5.24     3.01   0.59428  3.3443
 0.75000    5.24     3.00   0.59323  3.3441
 0.70000    5.24     3.00   0.59182  3.3441
 0.65000    5.24     3.01   0.59115  3.3443
 0.60000    5.24     2.99   0.59089  3.3446
 0.55000    5.24     0.00   0.59059  3.3449
 0.50000    5.23     3.00   0.59013  3.3453
 0.45000    5.22     3.01   0.59038  3.3454
 0.40000    5.22     3.00   0.59038  3.3458
 0.35000    5.20     3.00   0.59011  3.3461
 0.30000    5.19     3.00   0.59049  3.3460
 0.25000    5.18     3.01   0.59046  3.3462
 0.20000    5.17     3.01   0.59045  3.3461
 0.15000    5.16     2.99   0.59070  3.3461
 0.10000    5.14     3.00   0.59096  3.3460
 0.05000    5.13     2.99   0.59094  3.3462
-0.00000    5.12     2.99   0.59068  3.3461
