 Field[T] Tsmpl[K] Tcntr[K] Signal   Mirror[MM]
 0.00000    4.97     2.98   1.55206  3.4329
 0.05000    4.96     2.99   1.55021  3.4334
 0.10000    4.96     2.98   1.55082  3.4330
 0.15000    4.95     2.98   1.54824  3.4331
 0.20000    4.95     3.00   1.54709  3.4330
 0.25000    4.96     2.98   1.54664  3.4330
 0.30000    4.96     2.98   1.54625  3.4328
 0.35000    4.96     2.98   1.54509  3.4327
 0.40000    4.97     2.99   1.54277  3.4330
 0.45000    4.97     3.01   1.54174  3.4325
 0.50000    4.99     2.99   1.54196  3.4321
 0.55000    5.00     2.99   1.54096  3.4319
 0.60000    5.01     2.98   1.54006  3.4318
 0.65000    5.02     2.99   1.54184  3.4315
 0.70000    5.03     2.99   1.54153  3.4315
 0.75000    5.04     2.99   1.54456  3.4312
 0.80000    5.05     2.98   1.54722  3.4313
 0.85000    5.05     2.98   1.54901  3.4313
 0.90000    5.05     2.98   1.54961  3.4315
 0.95000    5.05     2.99   1.54962  3.4323
 1.00000    5.05     2.97   1.54943  3.4322
 1.05000    5.05     2.97   1.54842  3.4325
 1.10000    5.05     2.98   1.54922  3.4328
 1.15000    5.05     2.97   1.54871  3.4330
 1.20000    5.04     2.98   1.54854  3.4329
 1.25000    5.03     2.98   1.54785  3.4330
 1.30000    5.03     2.96   1.54808  3.4328
 1.35000    5.00     2.95   1.54706  3.4331
 1.40000    4.98     2.95   1.54622  3.4333
 1.45000    4.95     2.91   1.54672  3.4335
 1.50000    4.93     2.92   1.54514  3.4336
 1.55000    4.90     2.90   1.54474  3.4332
 1.60000    4.88     2.91   1.54486  3.4334
 1.65000    4.87     2.91   1.54415  3.4335
 1.70000    4.86     2.90   1.54391  3.4335
 1.75000    4.86     2.91   1.54406  3.4337
 1.80000    4.85     2.91   1.54358  3.4341
 1.85000    4.85     2.92   1.54249  3.4343
 1.90000    4.86     2.94   1.54371  3.4344
 1.95000    4.86     2.94   1.54291  3.4345
 2.00000    4.86     2.94   1.54197  3.4344
 2.05000    4.85     2.96   1.54105  3.4347
 2.10000    4.85     2.96   1.54064  3.4348
 2.15000    4.83     2.96   1.54153  3.4347
 2.20000    4.82     2.98   1.54022  3.4348
 2.25000    4.80     2.98   1.53873  3.4348
 2.30000    4.78     2.98   1.53804  3.4349
 2.35000    4.77     2.98   1.53723  3.4350
 2.40000    4.76     2.99   1.53693  3.4350
 2.45000    4.75     3.00   1.53787  3.4348
 2.50000    4.74     2.98   1.53655  3.4351
 2.55000    4.72     2.98   1.53678  3.4350
 2.60000    4.72     3.00   1.53552  3.4352
 2.65000    4.72     2.99   1.53619  3.4352
 2.70000    4.72     2.99   1.53555  3.4354
 2.75000    4.73     3.00   1.53572  3.4353
 2.80000    4.74     3.00   1.53432  3.4354
 2.85000    4.75     3.00   1.53393  3.4355
 2.90000    4.76     3.02   1.53382  3.4355
 2.95000    4.78     3.01   1.53262  3.4357
 3.00000    4.80     3.01   1.53239  3.4357
 3.00000    4.80     3.01   1.53254  3.4356
 2.95000    4.82     3.02   1.53278  3.4356
 2.90000    4.85     3.01   1.53278  3.4356
 2.85000    4.88     3.02   1.53206  3.4357
 2.80000    4.91     3.03   1.53239  3.4359
 2.75000    4.93     3.05   1.53328  3.4356
 2.70000    4.97     3.05   1.53297  3.4356
 2.65000    4.99     3.05   1.53371  3.4355
 2.60000    5.01     3.05   1.53333  3.4357
 2.55000    5.03     3.05   1.53276  3.4357
 2.50000    5.05     3.05   1.53283  3.4355
 2.45000    5.05     3.08   1.53357  3.4354
 2.40000    5.06     3.05   1.53306  3.4355
 2.35000    5.06     3.07   1.53219  3.4355
 2.30000    5.06     3.06   1.53321  3.4354
 2.25000    5.05     3.07   1.53425  3.4353
 2.20000    5.05     3.07   1.53433  3.4354
 2.15000    5.05     3.07   1.53428  3.4353
 2.10000    5.05     3.06   1.53297  3.4353
 2.05000    5.05     3.07   1.53313  3.4353
 2.00000    5.05     3.05   1.53402  3.4352
 1.95000    5.05     3.06   1.53344  3.4351
 1.90000    5.05     3.05   1.53340  3.4353
 1.85000    5.05     3.06   1.53436  3.4351
 1.80000    5.05     3.07   1.53405  3.4351
 1.75000    5.06     3.05   1.53435  3.4350
 1.70000    5.06     3.05   1.53404  3.4351
 1.65000    5.06     3.05   1.53358  3.4351
 1.60000    5.07     3.05   1.53370  3.4351
 1.55000    5.07     3.06   1.53328  3.4350
 1.50000    5.07     3.03   1.53381  3.4349
 1.45000    5.07     3.03   1.53371  3.4348
 1.40000    5.07     3.03   1.53359  3.4345
 1.35000    5.08     3.03   1.53370  3.4346
 1.30000    5.08     3.03   1.53474  3.4343
 1.25000    5.09     3.02   1.53399  3.4343
 1.20000    5.10     3.02   1.53440  3.4342
 1.15000    5.11     3.01   1.53396  3.4343
 1.10000    5.12     3.02   1.53401  3.4341
 1.05000    5.14     3.03   1.53355  3.4340
 1.00000    5.16     3.01   1.53450  3.4336
 0.95000    5.17     3.01   1.53419  3.4332
 0.90000    5.18     3.01   1.53305  3.4331
 0.85000    5.19     3.02   1.53148  3.4327
 0.80000    5.20     3.01   1.52968  3.4326
 0.75000    5.20     3.01   1.52827  3.4324
 0.70000    5.20     3.01   1.52421  3.4324
 0.65000    5.18     3.00   1.52196  3.4329
 0.60000    5.18     3.03   1.52079  3.4332
 0.55000    5.17     3.00   1.51949  3.4335
 0.50000    5.16     3.01   1.51958  3.4338
 0.45000    5.16     3.00   1.51898  3.4341
 0.40000    5.15     3.00   1.51873  3.4345
 0.35000    5.14     3.00   1.51914  3.4345
 0.30000    5.13     3.01   1.51885  3.4346
 0.25000    5.11     2.99   1.51876  3.4347
 0.20000    5.09     3.01   1.51965  3.4348
 0.15000    5.08     3.01   1.51916  3.4349
 0.10000    5.06     3.00   1.51944  3.4348
 0.05000    5.04     2.99   1.51956  3.4346
-0.00000    5.03     2.99   1.51993  3.4347
