 Field[T] Tsmpl[K] Tcntr[K] Signal   Mirror[MM]
 0.00000    4.98     3.00   2.17738  3.7108
 0.05000    4.98     2.98   2.17534  3.7108
 0.10000    4.98     3.00   2.17672  3.7107
 0.15000    4.97     2.99   2.17568  3.7107
 0.20000    4.97     2.98   2.17744  3.7104
 0.25000    4.97     3.00   2.17559  3.7104
 0.30000    4.97     2.98   2.17692  3.7104
 0.35000    4.96     2.99   2.17640  3.7103
 0.40000    4.96     2.98   2.17892  3.7100
 0.45000    4.95     2.98   2.17936  3.7092
 0.50000    4.95     3.00   2.18016  3.7089
 0.55000    4.95     2.98   2.18104  3.7089
 0.60000    4.94     2.98   2.18494  3.7083
 0.65000    4.94     2.98   2.18811  3.7083
 0.70000    4.95     3.00   2.19046  3.7085
 0.75000    4.96     2.98   2.19330  3.7085
 0.80000    4.96     2.98   2.19547  3.7088
 0.85000    4.97     2.99   2.19729  3.7089
 0.90000    4.97     2.98   2.19746  3.7090
 0.95000    4.98     2.98   2.19947  3.7092
 1.00000    4.98     2.98   2.19884  3.7093
 1.05000    4.99     2.99   2.20030  3.7095
 1.10000    4.99     2.97   2.20056  3.7096
 1.15000    4.98     2.98   2.20179  3.7097
 1.20000    4.98     2.98   2.20105  3.7099
 1.25000    4.98     2.98   2.20194  3.7100
 1.30000    4.98     2.97   2.20117  3.7101
 1.35000    4.98     2.98   2.20078  3.7104
 1.40000    4.99     2.99   2.20131  3.7104
 1.45000    4.99     2.98   2.19975  3.7105
 1.50000    4.99     2.98   2.19969  3.7106
 1.55000    5.00     2.98   2.20073  3.7107
 1.60000    5.01     2.97   2.20087  3.7106
 1.65000    5.02     2.97   2.19984  3.7107
 1.70000    5.03     2.98   2.19926  3.7109
 1.75000    5.03     2.97   2.19929  3.7110
 1.80000    5.03     2.98   2.19942  3.7108
 1.85000    5.02     2.99   2.19964  3.7109
 1.90000    5.01     3.01   2.20002  3.7110
 1.95000    5.00     2.98   2.19961  3.7111
 2.00000    4.99     2.99   2.19876  3.7111
 2.05000    4.97     2.99   2.19930  3.7110
 2.10000    4.96     2.98   2.19891  3.7111
 2.15000    4.95     3.01   2.19785  3.7112
 2.20000    4.94     2.99   2.19765  3.7113
 2.25000    4.92     2.99   2.19824  3.7111
 2.30000    4.91     2.99   2.19701  3.7112
 2.35000    4.90     3.00   2.19837  3.7112
 2.40000    4.89     2.99   2.19724  3.7114
 2.45000    4.89     2.99   2.19718  3.7113
 2.50000    4.89     3.01   2.19828  3.7114
 2.55000    4.89     2.99   2.19705  3.7116
 2.60000    4.89     3.00   2.19668  3.7115
 2.65000    4.90     3.00   2.19477  3.7117
 2.70000    4.90     3.00   2.19373  3.7118
 2.75000    4.92     3.00   2.19435  3.7117
 2.80000    4.92     3.00   2.19432  3.7116
 2.85000    4.93     3.00   2.19399  3.7116
 2.90000    4.94     3.00   2.19383  3.7118
 2.95000    4.96     3.01   2.19511  3.7116
 3.00000    4.97     3.00   2.19340  3.7116
 3.00000    4.98     3.00   2.19397  3.7116
 2.95000    5.00     3.00   2.19503  3.7115
 2.90000    5.01     3.01   2.19439  3.7117
 2.85000    5.03     3.00   2.19517  3.7117
 2.80000    5.05     3.02   2.19440  3.7117
 2.75000    5.07     3.01   2.19512  3.7115
 2.70000    5.08     3.02   2.19446  3.7117
 2.65000    5.10     3.02   2.19565  3.7117
 2.60000    5.12     3.02   2.19726  3.7116
 2.55000    5.13     3.02   2.19549  3.7116
 2.50000    5.15     3.04   2.19690  3.7115
 2.45000    5.18     3.03   2.19574  3.7117
 2.40000    5.19     3.03   2.19764  3.7117
 2.35000    5.20     3.05   2.19724  3.7118
 2.30000    5.21     3.03   2.19697  3.7118
 2.25000    5.21     3.03   2.19661  3.7116
 2.20000    5.21     3.02   2.19780  3.7115
 2.15000    5.21     3.02   2.19807  3.7114
 2.10000    5.20     3.04   2.20003  3.7112
 2.05000    5.20     3.02   2.19953  3.7111
 2.00000    5.20     3.02   2.19725  3.7114
 1.95000    5.19     3.01   2.19819  3.7112
 1.90000    5.19     3.03   2.19932  3.7113
 1.85000    5.19     3.02   2.19885  3.7111
 1.80000    5.19     3.02   2.19973  3.7110
 1.75000    5.18     3.02   2.19946  3.7110
 1.70000    5.19     3.03   2.19871  3.7110
 1.65000    5.19     3.02   2.19965  3.7111
 1.60000    5.19     3.01   2.20010  3.7108
 1.55000    5.20     3.01   2.20221  3.7106
 1.50000    5.20     3.02   2.20118  3.7108
 1.45000    5.20     3.01   2.20236  3.7105
 1.40000    5.21     3.01   2.20187  3.7105
 1.35000    5.21     3.01   2.20084  3.7105
 1.30000    5.22     3.01   2.20063  3.7104
 1.25000    5.23     3.03   2.20032  3.7102
 1.20000    5.24     3.00   2.19800  3.7104
 1.15000    5.25     3.01   2.19910  3.7103
 1.10000    5.26     3.00   2.20039  3.7101
 1.05000    5.27     3.02   2.20023  3.7101
 1.00000    5.27     3.02   2.20102  3.7097
 0.95000    5.27     3.01   2.19991  3.7096
 0.90000    5.28     3.01   2.19928  3.7095
 0.85000    5.27     3.01   2.19886  3.7093
 0.80000    5.26     3.02   2.19722  3.7092
 0.75000    5.26     3.01   2.19493  3.7090
 0.70000    5.24     3.01   2.19345  3.7087
 0.65000    5.23     3.01   2.19022  3.7086
 0.60000    5.22     3.01   2.18817  3.7088
 0.55000    5.21     3.00   2.18606  3.7091
 0.50000    5.19     3.00   2.18289  3.7097
 0.45000    5.18     2.99   2.18379  3.7098
 0.40000    5.17     3.00   2.18172  3.7100
 0.35000    5.15     2.99   2.18257  3.7104
 0.30000    5.13     3.00   2.18270  3.7103
 0.25000    5.11     3.00   2.18282  3.7107
 0.20000    5.11     3.00   2.18551  3.7107
 0.15000    5.09     2.99   2.18366  3.7108
 0.10000    5.07     3.00   2.18567  3.7106
 0.05000    5.06     2.99   2.18436  3.7109
-0.00000    5.05     3.00   2.18438  3.7110
