 Field[T] Tsmpl[K] Tcntr[K] Signal   Mirror[MM]
 0.00000    5.12     2.98   0.80911  3.7116
 0.05000    5.12     2.98   0.81303  3.7115
 0.10000    5.12     2.98   0.81734  3.7117
 0.15000    5.12     2.98   0.82061  3.7118
 0.20000    5.12     3.00   0.82450  3.7119
 0.25000    5.12     2.98   0.82778  3.7118
 0.30000    5.12     2.99   0.82857  3.7121
 0.35000    5.12     2.99   0.83022  3.7119
 0.40000    5.11     3.00   0.83130  3.7120
 0.45000    5.12     2.99   0.83193  3.7119
 0.50000    5.12     3.00   0.83368  3.7121
 0.55000    5.12     2.99   0.83393  3.7119
 0.60000    5.12     2.99   0.83416  3.7120
 0.65000    5.12     2.98   0.83335  3.7117
 0.70000    5.11     2.98   0.83421  3.7115
 0.75000    5.11     3.00   0.83497  3.7115
 0.80000    5.11     2.99   0.83470  3.7113
 0.85000    5.10     2.98   0.83445  3.7111
 0.90000    5.10     2.99   0.83490  3.7110
 0.95000    5.10     3.00   0.83520  3.7106
 1.00000    5.09     2.98   0.83432  3.7101
 1.05000    5.09     2.98   0.83510  3.7094
 1.10000    5.08     2.99   0.83645  3.7086
 1.15000    5.08     2.97   0.83890  3.7077
 1.20000    5.07     2.97   0.84302  3.7074
 1.25000    5.07     2.97   0.84805  3.7072
 1.30000    5.07     2.97   0.85152  3.7077
 1.35000    5.07     2.97   0.85371  3.7082
 1.40000    5.07     2.97   0.85456  3.7085
 1.45000    5.07     2.98   0.85440  3.7089
 1.50000    5.09     2.98   0.85468  3.7092
 1.55000    5.10     2.97   0.85584  3.7094
 1.60000    5.11     2.97   0.85641  3.7094
 1.65000    5.11     2.99   0.85434  3.7098
 1.70000    5.12     3.00   0.85335  3.7101
 1.75000    5.13     2.98   0.85201  3.7099
 1.80000    5.13     2.99   0.85107  3.7101
 1.85000    5.14     3.00   0.85067  3.7103
 1.90000    5.14     2.98   0.85009  3.7103
 1.95000    5.14     2.98   0.84969  3.7104
 2.00000    5.14     3.00   0.84872  3.7106
 2.05000    5.14     2.99   0.84900  3.7108
 2.10000    5.14     2.99   0.84929  3.7106
 2.15000    5.14     2.99   0.84967  3.7109
 2.20000    5.14     2.99   0.85145  3.7109
 2.25000    5.13     2.99   0.85129  3.7109
 2.30000    5.13     2.99   0.85009  3.7111
 2.35000    5.13     3.00   0.84800  3.7110
 2.40000    5.13     2.99   0.84636  3.7113
 2.45000    5.13     2.99   0.84616  3.7110
 2.50000    5.12     3.01   0.84505  3.7111
 2.55000    5.11     2.99   0.84501  3.7112
 2.60000    5.09     2.99   0.84483  3.7112
 2.65000    5.08     3.00   0.84484  3.7115
 2.70000    5.07     2.98   0.84385  3.7113
 2.75000    5.05     2.98   0.84461  3.7111
 2.80000    5.04     2.99   0.84357  3.7113
 2.85000    5.03     2.99   0.84394  3.7113
 2.90000    5.03     3.00   0.84355  3.7115
 2.95000    5.02     2.99   0.84344  3.7115
 3.00000    5.03     2.99   0.84257  3.7115
 3.00000    5.03     2.98   0.84242  3.7115
 2.95000    5.03     2.99   0.84271  3.7115
 2.90000    5.04     3.01   0.84367  3.7114
 2.85000    5.06     2.99   0.84278  3.7113
 2.80000    5.07     2.99   0.84451  3.7113
 2.75000    5.07     3.01   0.84401  3.7112
 2.70000    5.09     3.00   0.84304  3.7114
 2.65000    5.10     3.01   0.84394  3.7114
 2.60000    5.10     3.01   0.84298  3.7114
 2.55000    5.11     3.01   0.84196  3.7111
 2.50000    5.12     3.04   0.84457  3.7111
 2.45000    5.14     3.02   0.84297  3.7112
 2.40000    5.14     3.02   0.84123  3.7111
 2.35000    5.15     3.03   0.84027  3.7111
 2.30000    5.16     3.03   0.83969  3.7111
 2.25000    5.16     3.04   0.83910  3.7109
 2.20000    5.17     3.03   0.83904  3.7109
 2.15000    5.17     3.03   0.83817  3.7111
 2.10000    5.17     3.05   0.83830  3.7108
 2.05000    5.17     3.03   0.83912  3.7107
 2.00000    5.17     3.03   0.83860  3.7105
 1.95000    5.17     3.03   0.83819  3.7104
 1.90000    5.17     3.04   0.83861  3.7105
 1.85000    5.17     3.02   0.83846  3.7104
 1.80000    5.17     3.02   0.83760  3.7103
 1.75000    5.17     3.03   0.83733  3.7101
 1.70000    5.17     3.03   0.83742  3.7103
 1.65000    5.18     3.02   0.83837  3.7100
 1.60000    5.18     3.02   0.83801  3.7095
 1.55000    5.18     3.02   0.83903  3.7095
 1.50000    5.18     3.03   0.83773  3.7094
 1.45000    5.19     3.04   0.83633  3.7093
 1.40000    5.20     3.02   0.83644  3.7088
 1.35000    5.20     3.02   0.83469  3.7084
 1.30000    5.21     3.02   0.83286  3.7080
 1.25000    5.22     3.02   0.83011  3.7077
 1.20000    5.22     3.03   0.82582  3.7079
 1.15000    5.23     3.01   0.82246  3.7082
 1.10000    5.24     3.01   0.81997  3.7091
 1.05000    5.24     3.03   0.81964  3.7097
 1.00000    5.26     3.01   0.82069  3.7102
 0.95000    5.26     3.01   0.82012  3.7106
 0.90000    5.27     3.01   0.81993  3.7113
 0.85000    5.27     3.02   0.82008  3.7115
 0.80000    5.27     3.01   0.82126  3.7117
 0.75000    5.27     3.01   0.82204  3.7121
 0.70000    5.27     3.01   0.82333  3.7122
 0.65000    5.26     3.00   0.82395  3.7124
 0.60000    5.26     3.00   0.82640  3.7123
 0.55000    5.26     3.02   0.82336  3.7123
 0.50000    5.26     2.99   0.82255  3.7124
 0.45000    5.25     3.00   0.82195  3.7123
 0.40000    5.25     3.01   0.82272  3.7126
 0.35000    5.24     3.01   0.82183  3.7127
 0.30000    5.23     2.99   0.82217  3.7127
 0.25000    5.21     3.00   0.82172  3.7128
 0.20000    5.19     3.01   0.82343  3.7128
 0.15000    5.18     3.00   0.82315  3.7128
 0.10000    5.15     3.00   0.82312  3.7126
 0.05000    5.14     3.00   0.82396  3.7127
-0.00000    5.13     2.99   0.82359  3.7127
