 Field[T] Tsmpl[K] Tcntr[K] Signal   Mirror[MM]
 0.00000    4.95     3.02   1.10892  1.5244
 0.05000    4.95     2.99   1.10842  1.5245
 0.10000    4.95     2.99   1.10818  1.5247
 0.15000    4.95     3.02   1.10807  1.5246
 0.20000    4.95     2.99   1.10796  1.5247
 0.25000    4.96     3.00   1.10791  1.5246
 0.30000    4.96     3.01   1.10738  1.5250
 0.35000    4.96     2.99   1.10676  1.5248
 0.40000    4.96     2.99   1.10670  1.5250
 0.45000    4.97     3.01   1.10590  1.5249
 0.50000    4.97     2.99   1.10612  1.5250
 0.55000    4.97     3.00   1.10501  1.5248
 0.60000    4.97     3.00   1.10513  1.5247
 0.65000    4.96     3.00   1.10357  1.5251
 0.70000    4.95     3.01   1.10418  1.5247
 0.75000    4.95     3.00   1.10274  1.5243
 0.80000    4.95     3.00   1.10284  1.5242
 0.85000    4.95     3.00   1.10188  1.5244
 0.90000    4.95     3.00   1.10076  1.5245
 0.95000    4.95     3.00   1.09998  1.5245
 1.00000    4.94     2.99   1.09864  1.5245
 1.05000    4.94     2.99   1.09745  1.5245
 1.10000    4.94     3.00   1.09569  1.5247
 1.15000    4.94     2.98   1.09435  1.5247
 1.20000    4.94     2.99   1.09249  1.5250
 1.25000    4.95     3.00   1.09053  1.5240
 1.30000    4.95     2.99   1.08828  1.5236
 1.35000    4.95     2.99   1.08614  1.5236
 1.40000    4.95     2.99   1.08521  1.5230
 1.45000    4.95     2.99   1.08559  1.5222
 1.50000    4.95     2.99   1.08904  1.5215
 1.55000    4.94     2.99   1.09361  1.5209
 1.60000    4.94     3.01   1.09760  1.5206
 1.65000    4.95     2.99   1.10058  1.5209
 1.70000    4.95     2.99   1.10264  1.5212
 1.75000    4.95     2.99   1.10356  1.5211
 1.80000    4.95     3.01   1.10473  1.5211
 1.85000    4.96     3.00   1.10478  1.5214
 1.90000    4.96     3.00   1.10569  1.5215
 1.95000    4.96     3.00   1.10629  1.5218
 2.00000    4.96     2.99   1.10709  1.5217
 2.05000    4.96     3.00   1.10680  1.5220
 2.10000    4.96     3.00   1.10696  1.5217
 2.15000    4.97     3.01   1.10708  1.5220
 2.20000    4.97     3.00   1.10742  1.5220
 2.25000    4.97     2.99   1.10769  1.5220
 2.30000    4.96     3.01   1.10647  1.5226
 2.35000    4.96     3.00   1.10801  1.5222
 2.40000    4.95     3.00   1.10716  1.5224
 2.45000    4.95     3.00   1.10749  1.5225
 2.50000    4.95     3.00   1.10766  1.5225
 2.55000    4.95     3.01   1.10675  1.5227
 2.60000    4.95     3.00   1.10787  1.5225
 2.65000    4.95     3.00   1.10704  1.5227
 2.70000    4.95     3.00   1.10762  1.5225
 2.75000    4.95     3.00   1.10694  1.5228
 2.80000    4.96     3.02   1.10777  1.5228
 2.85000    4.96     3.00   1.10782  1.5228
 2.90000    4.96     3.01   1.10761  1.5229
 2.95000    4.96     3.00   1.10727  1.5228
 3.00000    4.96     3.01   1.10744  1.5227
 3.05000    4.95     3.02   1.10711  1.5228
 3.10000    4.95     3.00   1.10649  1.5231
 3.15000    4.94     3.01   1.10694  1.5230
 3.20000    4.93     3.00   1.10663  1.5230
 3.25000    4.93     3.01   1.10633  1.5228
 3.30000    4.92     3.00   1.10554  1.5230
 3.35000    4.92     3.01   1.10611  1.5228
 3.40000    4.92     3.00   1.10609  1.5230
 3.45000    4.92     3.00   1.10598  1.5229
 3.50000    4.91     3.01   1.10543  1.5231
 3.55000    4.91     3.00   1.10535  1.5233
 3.60000    4.91     3.01   1.10541  1.5232
 3.65000    4.91     3.01   1.10512  1.5232
 3.70000    4.92     3.00   1.10467  1.5236
 3.75000    4.93     3.00   1.10449  1.5235
 3.80000    4.94     3.02   1.10451  1.5231
 3.85000    4.95     3.01   1.10503  1.5230
 3.90000    4.96     3.01   1.10480  1.5229
 3.95000    4.97     3.04   1.10445  1.5227
 4.00000    4.98     3.01   1.10420  1.5229
 4.05000    4.99     3.01   1.10381  1.5231
 4.10000    4.99     3.02   1.10348  1.5234
 4.15000    5.00     3.00   1.10388  1.5233
 4.20000    5.00     3.00   1.10334  1.5234
 4.25000    5.00     3.01   1.10338  1.5232
 4.30000    5.01     3.00   1.10279  1.5234
 4.35000    5.01     3.01   1.10311  1.5237
 4.40000    5.01     3.03   1.10264  1.5234
 4.45000    5.01     3.01   1.10225  1.5234
 4.50000    5.01     3.01   1.10261  1.5237
 4.55000    5.01     3.02   1.10240  1.5237
 4.60000    5.01     3.01   1.10195  1.5237
 4.65000    5.01     3.01   1.10167  1.5239
 4.70000    5.02     3.01   1.10133  1.5238
 4.75000    5.02     3.01   1.10110  1.5238
 4.80000    5.02     3.03   1.10044  1.5239
 4.85000    5.03     3.01   1.10042  1.5238
 4.90000    5.03     3.01   1.10010  1.5236
 4.95000    5.04     3.02   1.09954  1.5237
 5.00000    5.05     3.01   1.09945  1.5238
 5.05000    5.05     3.01   1.09929  1.5241
 5.10000    5.05     3.01   1.09917  1.5241
 5.15000    5.05     3.01   1.09902  1.5243
 5.20000    5.06     3.03   1.09913  1.5245
 5.25000    5.06     3.01   1.09895  1.5239
 5.30000    5.07     3.00   1.09849  1.5241
 5.35000    5.08     3.01   1.09815  1.5241
 5.40000    5.09     3.00   1.09824  1.5241
 5.45000    5.10     3.01   1.09804  1.5244
 5.50000    5.10     3.00   1.09762  1.5243
 5.55000    5.11     3.01   1.09718  1.5244
 5.60000    5.12     3.02   1.09708  1.5244
 5.65000    5.13     3.01   1.09683  1.5243
 5.70000    5.13     3.01   1.09674  1.5250
 5.75000    5.14     3.01   1.09650  1.5252
 5.80000    5.15     3.02   1.09640  1.5245
 5.85000    5.16     3.00   1.09614  1.5244
 5.90000    5.17     3.01   1.09614  1.5244
 5.95000    5.18     3.00   1.09577  1.5246
 6.00000    5.19     3.02   1.09575  1.5244
 6.05000    5.20     3.00   1.09459  1.5246
 6.10000    5.20     3.01   1.09503  1.5247
 6.15000    5.21     3.01   1.09449  1.5247
 6.20000    5.22     3.01   1.09472  1.5246
 6.25000    5.22     3.02   1.09439  1.5246
 6.30000    5.23     3.01   1.09455  1.5248
 6.35000    5.23     3.00   1.09416  1.5248
 6.40000    5.23     3.00   1.09385  1.5249
 6.45000    5.23     3.00   1.09370  1.5246
 6.50000    5.24     3.01   1.09333  1.5245
 6.55000    5.25     3.00   1.09327  1.5245
 6.60000    5.25     3.01   1.09292  1.5245
 6.65000    5.26     3.00   1.09252  1.5246
 6.70000    5.27     3.00   1.09228  1.5249
 6.75000    5.27     3.00   1.09235  1.5247
 6.80000    5.27     3.01   1.09196  1.5248
 6.85000    5.28     3.01   1.09152  1.5247
 6.90000    5.28     3.00   1.09134  1.5249
 6.95000    5.28     3.00   1.09074  1.5250
 7.00000    5.27     3.00   1.09095  1.5254
 7.00000    5.26     3.01   1.09079  1.5255
 6.95000    5.26     3.01   1.09082  1.5255
 6.90000    5.25     3.00   1.09162  1.5252
 6.85000    5.25     3.02   1.09170  1.5252
 6.80000    5.24     3.01   1.09173  1.5250
 6.75000    5.24     3.02   1.09201  1.5249
 6.70000    5.24     3.02   1.09203  1.5249
 6.65000    5.23     3.01   1.09247  1.5249
 6.60000    5.22     3.01   1.09255  1.5249
 6.55000    5.22     3.01   1.09217  1.5252
 6.50000    5.21     3.01   1.09304  1.5252
 6.45000    5.21     3.02   1.09329  1.5251
 6.40000    5.21     3.00   1.09332  1.5249
 6.35000    5.21     3.01   1.09359  1.5248
 6.30000    5.20     3.01   1.09424  1.5248
 6.25000    5.20     3.00   1.09405  1.5251
 6.20000    5.20     3.01   1.09429  1.5250
 6.15000    5.20     3.01   1.09324  1.5250
 6.10000    5.20     3.01   1.09471  1.5251
 6.05000    5.20     3.01   1.09501  1.5253
 6.00000    5.20     3.00   1.09506  1.5254
 5.95000    5.19     3.02   1.09537  1.5253
 5.90000    5.20     3.00   1.09600  1.5254
 5.85000    5.20     3.01   1.09560  1.5249
 5.80000    5.20     3.01   1.09603  1.5249
 5.75000    5.19     3.00   1.09622  1.5253
 5.70000    5.19     3.02   1.09664  1.5251
 5.65000    5.19     3.00   1.09681  1.5251
 5.60000    5.19     3.00   1.09718  1.5251
 5.55000    5.19     3.00   1.09723  1.5249
 5.50000    5.19     3.00   1.09731  1.5250
 5.45000    5.18     3.01   1.09723  1.5250
 5.40000    5.19     3.00   1.09796  1.5247
 5.35000    5.19     3.00   1.09755  1.5251
 5.30000    5.19     3.01   1.09795  1.5251
 5.25000    5.19     3.00   1.09737  1.5252
 5.20000    5.19     2.99   1.09788  1.5250
 5.15000    5.19     3.02   1.09812  1.5249
 5.10000    5.20     3.00   1.09871  1.5251
 5.05000    5.20     3.00   1.09852  1.5251
 5.00000    5.20     3.02   1.09891  1.5250
 4.95000    5.21     2.99   1.09885  1.5249
 4.90000    5.21     3.00   1.09903  1.5249
 4.85000    5.21     3.00   1.09899  1.5250
 4.80000    5.21     3.01   1.09938  1.5250
 4.75000    5.22     2.99   1.09971  1.5252
 4.70000    5.22     3.00   1.09986  1.5250
 4.65000    5.22     3.00   1.10020  1.5251
 4.60000    5.23     2.99   1.10019  1.5252
 4.55000    5.23     3.00   1.10029  1.5250
 4.50000    5.23     3.00   1.10048  1.5250
 4.45000    5.24     3.02   1.10041  1.5250
 4.40000    5.24     2.99   1.10058  1.5248
 4.35000    5.24     3.00   1.10098  1.5246
 4.30000    5.24     3.00   1.10077  1.5247
 4.25000    5.24     3.00   1.10065  1.5247
 4.20000    5.25     3.01   1.10080  1.5248
 4.15000    5.25     3.00   1.10160  1.5249
 4.10000    5.26     3.00   1.10157  1.5250
 4.05000    5.26     3.02   1.10176  1.5251
 4.00000    5.27     3.00   1.10177  1.5249
 3.95000    5.27     3.00   1.10188  1.5250
 3.90000    5.27     2.99   1.10206  1.5251
 3.85000    5.27     3.02   1.10202  1.5249
 3.80000    5.28     3.00   1.10256  1.5249
 3.75000    5.28     3.00   1.10251  1.5250
 3.70000    5.28     3.00   1.10227  1.5250
 3.65000    5.28     3.01   1.10314  1.5250
 3.60000    5.28     3.00   1.10258  1.5251
 3.55000    5.28     3.02   1.10312  1.5249
 3.50000    5.29     3.00   1.10320  1.5250
 3.45000    5.29     2.99   1.10302  1.5250
 3.40000    5.29     3.02   1.10350  1.5250
 3.35000    5.29     3.00   1.10355  1.5251
 3.30000    5.30     2.99   1.10379  1.5250
 3.25000    5.30     3.01   1.10381  1.5247
 3.20000    5.30     2.99   1.10430  1.5248
 3.15000    5.30     3.00   1.10407  1.5247
 3.10000    5.30     3.00   1.10437  1.5249
 3.05000    5.30     3.02   1.10456  1.5250
 3.00000    5.31     3.00   1.10490  1.5248
 2.95000    5.31     3.00   1.10519  1.5248
 2.90000    5.31     3.00   1.10540  1.5247
 2.85000    5.32     3.02   1.10528  1.5248
 2.80000    5.32     3.00   1.10554  1.5246
 2.75000    5.33     3.00   1.10513  1.5245
 2.70000    5.33     3.02   1.10533  1.5246
 2.65000    5.34     2.99   1.10600  1.5240
 2.60000    5.34     3.00   1.10545  1.5244
 2.55000    5.34     3.00   1.10558  1.5246
 2.50000    5.34     3.00   1.10533  1.5245
 2.45000    5.34     2.99   1.10581  1.5245
 2.40000    5.34     3.00   1.10593  1.5245
 2.35000    5.34     3.00   1.10564  1.5246
 2.30000    5.34     2.99   1.10596  1.5246
 2.25000    5.34     3.01   1.10574  1.5242
 2.20000    5.34     2.99   1.10542  1.5242
 2.15000    5.34     3.00   1.10558  1.5242
 2.10000    5.34     3.00   1.10530  1.5242
 2.05000    5.34     3.00   1.10519  1.5241
 2.00000    5.34     3.00   1.10535  1.5240
 1.95000    5.34     3.00   1.10469  1.5240
 1.90000    5.33     3.00   1.10419  1.5239
 1.85000    5.33     3.02   1.10401  1.5236
 1.80000    5.33     2.99   1.10320  1.5234
 1.75000    5.32     3.00   1.10244  1.5234
 1.70000    5.32     3.00   1.10143  1.5233
 1.65000    5.31     2.99   1.09928  1.5232
 1.60000    5.30     3.01   1.09690  1.5231
 1.55000    5.28     2.99   1.09303  1.5230
 1.50000    5.27     2.99   1.08839  1.5235
 1.45000    5.25     3.01   1.08531  1.5241
 1.40000    5.24     2.99   1.08446  1.5250
 1.35000    5.22     2.99   1.08553  1.5254
 1.30000    5.21     2.99   1.08755  1.5259
 1.25000    5.20     3.00   1.08912  1.5263
 1.20000    5.19     3.00   1.09122  1.5268
 1.15000    5.18     3.02   1.09314  1.5267
 1.10000    5.18     2.99   1.09482  1.5267
 1.05000    5.17     2.99   1.09603  1.5270
 1.00000    5.16     2.99   1.09742  1.5269
 0.95000    5.15     2.99   1.09846  1.5271
 0.90000    5.14     3.02   1.09945  1.5270
 0.85000    5.13     2.99   1.10030  1.5271
 0.80000    5.12     2.99   1.10123  1.5271
 0.75000    5.11     2.99   1.10191  1.5269
 0.70000    5.09     2.99   1.10290  1.5270
 0.65000    5.09     2.98   1.10288  1.5270
 0.60000    5.08     3.00   1.10402  1.5269
 0.55000    5.07     2.99   1.10459  1.5270
 0.50000    5.07     3.00   1.10504  1.5270
 0.45000    5.07     2.99   1.10594  1.5271
 0.40000    5.06     3.00   1.10604  1.5271
 0.35000    5.06     2.99   1.10645  1.5270
 0.30000    5.06     3.00   1.10748  1.5270
 0.25000    5.07     3.00   1.10780  1.5271
 0.20000    5.07     2.99   1.10794  1.5269
 0.15000    5.07     2.99   1.10824  1.5270
 0.10000    5.07     2.99   1.10835  1.5270
 0.05000    5.06     3.00   1.10856  1.5270
-0.00000    5.06     3.00   1.10916  1.5270
