 Field[T] Tsmpl[K] Tcntr[K] Signal   Mirror[MM]
 0.00000    4.94     2.97   0.61983  1.5363
 0.05000    4.94     2.98   0.61942  1.5360
 0.10000    4.93     2.97   0.61910  1.5360
 0.15000    4.92     2.97   0.61838  1.5361
 0.20000    4.91     2.98   0.61801  1.5361
 0.25000    4.91     2.98   0.61744  1.5362
 0.30000    4.90     2.98   0.61687  1.5362
 0.35000    4.89     2.97   0.61637  1.5362
 0.40000    4.88     2.97   0.61571  1.5363
 0.45000    4.87     2.98   0.61510  1.5361
 0.50000    4.86     2.97   0.61442  1.5359
 0.55000    4.85     2.98   0.61404  1.5361
 0.60000    4.85     2.98   0.61357  1.5361
 0.65000    4.84     2.97   0.61309  1.5361
 0.70000    4.83     2.97   0.61234  1.5360
 0.75000    4.82     2.97   0.61183  1.5360
 0.80000    4.82     2.97   0.61083  1.5359
 0.85000    4.81     2.96   0.61013  1.5358
 0.90000    4.81     2.97   0.60921  1.5357
 0.95000    4.81     2.97   0.60862  1.5356
 1.00000    4.80     2.97   0.60735  1.5353
 1.05000    4.80     2.96   0.60670  1.5351
 1.10000    4.79     2.96   0.60549  1.5348
 1.15000    4.78     2.96   0.60476  1.5343
 1.20000    4.78     2.96   0.60431  1.5337
 1.25000    4.78     2.96   0.60480  1.5331
 1.30000    4.77     2.96   0.60674  1.5325
 1.35000    4.77     2.96   0.60870  1.5322
 1.40000    4.77     2.96   0.61062  1.5321
 1.45000    4.76     2.97   0.61147  1.5323
 1.50000    4.76     2.96   0.61209  1.5326
 1.55000    4.76     2.94   0.61257  1.5328
 1.60000    4.76     2.95   0.61294  1.5328
 1.65000    4.75     2.96   0.61325  1.5330
 1.70000    4.75     2.96   0.61349  1.5331
 1.75000    4.76     2.96   0.61347  1.5331
 1.80000    4.76     2.96   0.61368  1.5331
 1.85000    4.76     2.97   0.61373  1.5331
 1.90000    4.76     2.97   0.61399  1.5333
 1.95000    4.77     2.98   0.61382  1.5332
 2.00000    4.78     2.98   0.61402  1.5334
 2.00000    4.78     2.98   0.61387  1.5334
 1.95000    4.78     2.99   0.61393  1.5334
 1.90000    4.78     2.99   0.61370  1.5333
 1.85000    4.79     3.00   0.61349  1.5332
 1.80000    4.80     2.99   0.61340  1.5330
 1.75000    4.81     3.00   0.61333  1.5329
 1.70000    4.81     3.00   0.61311  1.5328
 1.65000    4.82     3.00   0.61305  1.5327
 1.60000    4.82     3.00   0.61269  1.5327
 1.55000    4.83     3.00   0.61205  1.5326
 1.50000    4.83     3.01   0.61156  1.5325
 1.45000    4.84     3.01   0.61118  1.5322
 1.40000    4.84     3.00   0.60984  1.5318
 1.35000    4.85     3.01   0.60816  1.5319
 1.30000    4.86     3.01   0.60621  1.5320
 1.25000    4.86     3.01   0.60419  1.5326
 1.20000    4.87     3.01   0.60340  1.5334
 1.15000    4.88     3.02   0.60370  1.5340
 1.10000    4.89     3.02   0.60422  1.5346
 1.05000    4.90     3.03   0.60510  1.5351
 1.00000    4.91     3.03   0.60607  1.5353
 0.95000    4.91     3.02   0.60703  1.5356
 0.90000    4.92     3.02   0.60778  1.5356
 0.85000    4.93     3.02   0.60833  1.5356
 0.80000    4.94     3.03   0.60894  1.5358
 0.75000    4.94     3.02   0.60940  1.5358
 0.70000    4.94     3.01   0.61005  1.5356
 0.65000    4.95     3.01   0.61038  1.5359
 0.60000    4.95     3.01   0.61087  1.5359
 0.55000    4.94     3.01   0.61102  1.5359
 0.50000    4.94     3.01   0.61149  1.5360
 0.45000    4.94     3.01   0.61148  1.5361
 0.40000    4.93     3.01   0.61199  1.5360
 0.35000    4.92     3.01   0.61214  1.5359
 0.30000    4.91     3.01   0.61243  1.5360
 0.25000    4.91     3.01   0.61250  1.5360
 0.20000    4.89     3.01   0.61277  1.5361
 0.15000    4.88     3.01   0.61289  1.5360
 0.10000    4.87     3.00   0.61337  1.5361
 0.05000    4.86     3.00   0.61324  1.5361
-0.00000    4.84     3.00   0.61355  1.5360
