 Field[T] Tsmpl[K] Tcntr[K] Signal   Mirror[MM]
 0.00000    4.96     2.96   0.90913  1.5426
 0.05000    4.96     2.98   0.90802  1.5426
 0.10000    4.96     2.96   0.90812  1.5424
 0.15000    4.95     2.97   0.90731  1.5424
 0.20000    4.95     2.99   0.90659  1.5424
 0.25000    4.95     2.96   0.90586  1.5426
 0.30000    4.95     2.97   0.90551  1.5425
 0.35000    4.95     2.99   0.90481  1.5422
 0.40000    4.94     2.97   0.90423  1.5423
 0.45000    4.94     2.98   0.90321  1.5425
 0.50000    4.95     2.99   0.90262  1.5424
 0.55000    4.96     2.98   0.90192  1.5423
 0.60000    4.96     2.97   0.90122  1.5420
 0.65000    4.96     2.97   0.90038  1.5421
 0.70000    4.96     2.97   0.89929  1.5421
 0.75000    4.95     2.94   0.89866  1.5421
 0.80000    4.95     2.96   0.89785  1.5421
 0.85000    4.96     2.96   0.89642  1.5422
 0.90000    4.96     2.96   0.89575  1.5420
 0.95000    4.96     2.97   0.89463  1.5419
 1.00000    4.96     2.97   0.89350  1.5413
 1.05000    4.96     2.97   0.89272  1.5409
 1.10000    4.96     2.98   0.89246  1.5403
 1.15000    4.97     2.97   0.89205  1.5397
 1.20000    4.97     2.96   0.89371  1.5390
 1.25000    4.97     2.97   0.89666  1.5387
 1.30000    4.97     2.95   0.89885  1.5386
 1.35000    4.97     2.96   0.90043  1.5388
 1.40000    4.96     2.97   0.90160  1.5390
 1.45000    4.96     2.96   0.90235  1.5392
 1.50000    4.96     2.97   0.90206  1.5395
 1.55000    4.96     2.98   0.90287  1.5395
 1.60000    4.96     2.98   0.90278  1.5395
 1.65000    4.96     2.99   0.90309  1.5398
 1.70000    4.96     2.98   0.90288  1.5399
 1.75000    4.95     2.98   0.90313  1.5399
 1.80000    4.94     2.98   0.90300  1.5398
 1.85000    4.94     3.00   0.90292  1.5400
 1.90000    4.93     2.98   0.90293  1.5401
 1.95000    4.93     2.98   0.90312  1.5402
 2.00000    4.92     3.00   0.90260  1.5402
 2.05000    4.92     2.98   0.90281  1.5403
 2.10000    4.92     2.99   0.90247  1.5404
 2.15000    4.92     3.01   0.90257  1.5404
 2.20000    4.92     2.98   0.90253  1.5405
 2.25000    4.92     2.99   0.90278  1.5407
 2.30000    4.92     2.99   0.90237  1.5408
 2.35000    4.91     2.99   0.90210  1.5407
 2.40000    4.91     3.01   0.90199  1.5406
 2.45000    4.91     2.99   0.90208  1.5407
 2.50000    4.91     2.99   0.90155  1.5404
 2.55000    4.91     3.00   0.90149  1.5406
 2.60000    4.92     3.02   0.90153  1.5407
 2.65000    4.94     3.00   0.90096  1.5408
 2.70000    4.95     3.01   0.90099  1.5409
 2.75000    4.97     3.01   0.90104  1.5409
 2.80000    4.98     3.02   0.90051  1.5409
 2.85000    5.00     3.03   0.90065  1.5410
 2.90000    5.01     3.02   0.90025  1.5411
 2.95000    5.02     3.02   0.90031  1.5414
 3.00000    5.03     3.01   0.90023  1.5411
 3.05000    5.03     3.02   0.90009  1.5409
 3.10000    5.04     3.04   0.89990  1.5411
 3.15000    5.04     3.02   0.89966  1.5412
 3.20000    5.04     3.02   0.89947  1.5411
 3.25000    5.05     3.03   0.89933  1.5411
 3.30000    5.05     3.02   0.89914  1.5411
 3.35000    5.05     3.02   0.89937  1.5410
 3.40000    5.05     3.02   0.89907  1.5410
 3.45000    5.06     3.03   0.89862  1.5411
 3.50000    5.07     3.02   0.89863  1.5412
 3.55000    5.07     3.04   0.89835  1.5412
 3.60000    5.08     3.03   0.89839  1.5412
 3.65000    5.09     3.03   0.89827  1.5414
 3.70000    5.10     3.03   0.89800  1.5414
 3.75000    5.11     3.03   0.89784  1.5414
 3.80000    5.11     3.02   0.89744  1.5415
 3.85000    5.12     3.04   0.89748  1.5414
 3.90000    5.13     3.02   0.89745  1.5414
 3.95000    5.14     3.04   0.89700  1.5414
 4.00000    5.15     3.02   0.89696  1.5413
 4.00000    5.15     3.01   0.89671  1.5413
 3.95000    5.15     3.02   0.89717  1.5415
 3.90000    5.16     3.04   0.89711  1.5416
 3.85000    5.16     3.03   0.89715  1.5415
 3.80000    5.16     3.03   0.89739  1.5414
 3.75000    5.17     3.02   0.89783  1.5414
 3.70000    5.18     3.04   0.89780  1.5412
 3.65000    5.20     3.04   0.89816  1.5414
 3.60000    5.20     3.05   0.89846  1.5413
 3.55000    5.21     3.03   0.89875  1.5414
 3.50000    5.22     3.05   0.89847  1.5414
 3.45000    5.23     3.03   0.89890  1.5416
 3.40000    5.23     3.05   0.89900  1.5414
 3.35000    5.24     3.04   0.89892  1.5415
 3.30000    5.24     3.05   0.89954  1.5412
 3.25000    5.25     3.03   0.89973  1.5412
 3.20000    5.25     3.05   0.89968  1.5413
 3.15000    5.26     3.03   0.89987  1.5411
 3.10000    5.26     3.05   0.90002  1.5414
 3.05000    5.27     3.02   0.90015  1.5413
 3.00000    5.27     3.03   0.90047  1.5412
 2.95000    5.27     3.03   0.90034  1.5414
 2.90000    5.27     3.03   0.90102  1.5412
 2.85000    5.27     3.04   0.90103  1.5412
 2.80000    5.27     3.01   0.90097  1.5411
 2.75000    5.27     3.02   0.90131  1.5411
 2.70000    5.27     3.02   0.90129  1.5409
 2.65000    5.28     3.04   0.90168  1.5410
 2.60000    5.28     3.01   0.90167  1.5410
 2.55000    5.28     3.02   0.90188  1.5410
 2.50000    5.28     3.03   0.90162  1.5410
 2.45000    5.29     3.03   0.90192  1.5409
 2.40000    5.30     3.02   0.90192  1.5409
 2.35000    5.30     3.02   0.90212  1.5409
 2.30000    5.30     3.01   0.90227  1.5407
 2.25000    5.30     3.02   0.90209  1.5406
 2.20000    5.31     3.02   0.90239  1.5407
 2.15000    5.31     3.01   0.90231  1.5407
 2.10000    5.32     3.02   0.90271  1.5407
 2.05000    5.32     3.01   0.90255  1.5405
 2.00000    5.32     3.00   0.90251  1.5406
 1.95000    5.32     3.01   0.90250  1.5405
 1.90000    5.33     3.02   0.90274  1.5404
 1.85000    5.34     3.01   0.90284  1.5404
 1.80000    5.34     3.01   0.90278  1.5403
 1.75000    5.36     3.02   0.90268  1.5403
 1.70000    5.36     3.00   0.90230  1.5402
 1.65000    5.38     3.01   0.90228  1.5400
 1.60000    5.39     3.00   0.90252  1.5400
 1.55000    5.39     3.02   0.90196  1.5398
 1.50000    5.41     3.00   0.90165  1.5398
 1.45000    5.41     2.99   0.90134  1.5397
 1.40000    5.41     3.00   0.90072  1.5396
 1.35000    5.42     2.99   0.89952  1.5394
 1.30000    5.42     3.02   0.89813  1.5392
 1.25000    5.43     3.01   0.89553  1.5390
 1.20000    5.43     3.00   0.89306  1.5392
 1.15000    5.43     3.00   0.89066  1.5397
 1.10000    5.43     3.02   0.88978  1.5402
 1.05000    5.43     3.00   0.88959  1.5407
 1.00000    5.43     3.00   0.89009  1.5411
 0.95000    5.43     3.00   0.89122  1.5415
 0.90000    5.42     3.00   0.89222  1.5418
 0.85000    5.43     3.00   0.89298  1.5420
 0.80000    5.43     3.01   0.89374  1.5420
 0.75000    5.43     3.00   0.89370  1.5422
 0.70000    5.42     2.99   0.89513  1.5420
 0.65000    5.41     3.00   0.89565  1.5421
 0.60000    5.41     2.99   0.89586  1.5422
 0.55000    5.40     3.01   0.89666  1.5422
 0.50000    5.38     2.99   0.89695  1.5425
 0.45000    5.37     2.99   0.89746  1.5424
 0.40000    5.34     2.99   0.89780  1.5426
 0.35000    5.33     3.01   0.89804  1.5424
 0.30000    5.32     2.99   0.89761  1.5427
 0.25000    5.30     3.00   0.89821  1.5424
 0.20000    5.30     2.99   0.89868  1.5424
 0.15000    5.29     3.01   0.89868  1.5426
 0.10000    5.28     3.00   0.89905  1.5425
 0.05000    5.28     3.00   0.89912  1.5424
-0.00000    5.27     2.99   0.89885  1.5427
