 Field[T] Tsmpl[K] Tcntr[K] Signal   Mirror[MM]
 0.00000    4.74     2.98   0.58576  1.5623
 0.05000    4.74     2.99   0.58568  1.5623
 0.10000    4.74     2.99   0.58556  1.5623
 0.15000    4.74     2.98   0.58543  1.5622
 0.20000    4.73     2.99   0.58563  1.5621
 0.25000    4.72     2.98   0.58536  1.5622
 0.30000    4.71     2.98   0.58544  1.5623
 0.35000    4.71     2.98   0.58537  1.5624
 0.40000    4.70     2.99   0.58531  1.5621
 0.45000    4.70     2.98   0.58499  1.5623
 0.50000    4.69     2.99   0.58466  1.5623
 0.55000    4.69     2.99   0.58449  1.5621
 0.60000    4.69     2.99   0.58437  1.5623
 0.65000    4.69     2.98   0.58430  1.5623
 0.70000    4.69     2.98   0.58391  1.5622
 0.75000    4.69     2.98   0.58377  1.5620
 0.80000    4.69     2.98   0.58336  1.5620
 0.85000    4.69     2.98   0.58300  1.5619
 0.90000    4.69     2.98   0.58261  1.5618
 0.95000    4.69     2.96   0.58206  1.5616
 1.00000    4.68     2.97   0.58162  1.5617
 1.05000    4.67     2.97   0.58083  1.5616
 1.10000    4.67     2.97   0.58028  1.5614
 1.15000    4.67     2.97   0.57952  1.5612
 1.20000    4.66     2.97   0.57859  1.5608
 1.25000    4.66     2.97   0.57792  1.5605
 1.30000    4.66     2.94   0.57817  1.5600
 1.35000    4.64     2.95   0.57863  1.5593
 1.40000    4.64     2.95   0.57997  1.5587
 1.45000    4.64     2.96   0.58260  1.5584
 1.50000    4.65     2.96   0.58491  1.5584
 1.55000    4.65     2.97   0.58607  1.5586
 1.60000    4.65     2.97   0.58736  1.5588
 1.65000    4.65     2.97   0.58747  1.5590
 1.70000    4.65     2.98   0.58825  1.5593
 1.75000    4.65     2.98   0.58833  1.5594
 1.80000    4.65     2.98   0.58877  1.5595
 1.85000    4.65     2.99   0.58908  1.5595
 1.90000    4.65     2.99   0.58896  1.5597
 1.95000    4.65     2.99   0.58910  1.5597
 2.00000    4.65     3.00   0.58915  1.5597
 2.00000    4.65     2.99   0.58906  1.5599
 1.95000    4.65     2.99   0.58928  1.5598
 1.90000    4.65     3.00   0.58875  1.5597
 1.85000    4.66     3.00   0.58874  1.5596
 1.80000    4.67     3.00   0.58852  1.5597
 1.75000    4.67     3.00   0.58843  1.5596
 1.70000    4.69     3.00   0.58819  1.5594
 1.65000    4.70     3.01   0.58791  1.5593
 1.60000    4.71     3.01   0.58731  1.5591
 1.55000    4.72     3.01   0.58660  1.5585
 1.50000    4.74     3.01   0.58488  1.5585
 1.45000    4.75     3.02   0.58270  1.5584
 1.40000    4.76     3.01   0.58048  1.5588
 1.35000    4.77     3.02   0.57857  1.5595
 1.30000    4.78     3.03   0.57799  1.5602
 1.25000    4.80     3.04   0.57831  1.5607
 1.20000    4.81     3.04   0.57900  1.5611
 1.15000    4.82     3.03   0.57959  1.5616
 1.10000    4.83     3.04   0.58041  1.5617
 1.05000    4.84     3.03   0.58132  1.5620
 1.00000    4.84     3.03   0.58203  1.5622
 0.95000    4.85     3.04   0.58259  1.5621
 0.90000    4.86     3.03   0.58335  1.5623
 0.85000    4.86     3.04   0.58370  1.5624
 0.80000    4.87     3.03   0.58451  1.5625
 0.75000    4.88     3.05   0.58476  1.5624
 0.70000    4.89     3.04   0.58518  1.5624
 0.65000    4.89     3.03   0.58561  1.5623
 0.60000    4.89     3.03   0.58584  1.5626
 0.55000    4.90     3.03   0.58626  1.5626
 0.50000    4.89     3.02   0.58644  1.5624
 0.45000    4.89     3.02   0.58696  1.5625
 0.40000    4.88     3.02   0.58715  1.5626
 0.35000    4.87     3.02   0.58742  1.5625
 0.30000    4.86     3.01   0.58773  1.5627
 0.25000    4.84     3.01   0.58795  1.5626
 0.20000    4.83     3.01   0.58852  1.5628
 0.15000    4.82     3.00   0.58838  1.5625
 0.10000    4.80     3.00   0.58849  1.5625
 0.05000    4.79     3.00   0.58866  1.5627
-0.00000    4.78     3.00   0.58898  1.5627
