 Field[T] Tsmpl[K] Tcntr[K] Signal   Mirror[MM]
 0.00000    5.15     2.98   0.82308  1.6005
 0.05000    5.14     2.97   0.82312  1.6003
 0.10000    5.13     2.97   0.82264  1.6004
 0.15000    5.12     2.98   0.82227  1.6004
 0.20000    5.12     2.97   0.82175  1.6004
 0.25000    5.11     2.97   0.82157  1.6004
 0.30000    5.11     2.98   0.82216  1.6004
 0.35000    5.11     2.97   0.82169  1.6004
 0.40000    5.10     2.97   0.82176  1.6004
 0.45000    5.10     2.97   0.82177  1.6003
 0.50000    5.10     2.96   0.82151  1.6003
 0.55000    5.09     2.97   0.82179  1.6003
 0.60000    5.09     2.96   0.82162  1.6005
 0.65000    5.08     2.96   0.82220  1.6006
 0.70000    5.07     2.96   0.82311  1.6005
 0.75000    5.06     2.94   0.82289  1.6004
 0.80000    5.05     2.95   0.82494  1.6002
 0.85000    5.05     2.94   0.82360  1.6001
 0.90000    5.03     2.94   0.82168  1.6002
 0.95000    5.02     2.93   0.82045  1.6003
 1.00000    5.01     2.95   0.81997  1.6003
 1.05000    5.00     2.93   0.81901  1.6004
 1.10000    4.99     2.93   0.81793  1.6005
 1.15000    4.98     2.94   0.81717  1.6004
 1.20000    4.97     2.94   0.81645  1.6004
 1.25000    4.96     2.95   0.81604  1.6004
 1.30000    4.95     2.93   0.81533  1.6005
 1.35000    4.95     2.93   0.81493  1.6006
 1.40000    4.94     2.94   0.81441  1.6008
 1.45000    4.94     2.93   0.81375  1.6009
 1.50000    4.94     2.94   0.81340  1.6009
 1.55000    4.94     2.93   0.81333  1.6009
 1.60000    4.93     2.94   0.81282  1.6009
 1.65000    4.93     2.94   0.81177  1.6010
 1.70000    4.93     2.95   0.81127  1.6009
 1.75000    4.93     2.95   0.81070  1.6009
 1.80000    4.92     2.96   0.80981  1.6009
 1.85000    4.92     2.96   0.80945  1.6008
 1.90000    4.92     2.97   0.80867  1.6009
 1.95000    4.92     2.97   0.80654  1.6007
 2.00000    4.91     2.97   0.80475  1.6007
 2.05000    4.92     2.97   0.80330  1.6002
 2.10000    4.92     2.98   0.80372  1.5998
 2.15000    4.93     2.99   0.80476  1.5995
 2.20000    4.93     2.99   0.80714  1.5993
 2.25000    4.93     2.99   0.80995  1.5991
 2.30000    4.92     2.98   0.81183  1.5992
 2.35000    4.91     2.99   0.81366  1.5993
 2.40000    4.90     2.99   0.81405  1.5993
 2.45000    4.90     2.99   0.81534  1.5995
 2.50000    4.90     3.00   0.81648  1.5996
 2.55000    4.90     2.99   0.81407  1.5995
 2.60000    4.91     2.99   0.81269  1.5995
 2.65000    4.92     2.99   0.81130  1.5996
 2.70000    4.93     3.00   0.81054  1.5996
 2.75000    4.95     3.01   0.80987  1.5996
 2.80000    4.97     3.00   0.80946  1.5996
 2.85000    4.98     3.00   0.80902  1.5998
 2.90000    5.00     3.01   0.80896  1.5999
 2.95000    5.01     3.00   0.80896  1.5999
 3.00000    5.03     3.00   0.80835  1.5999
 3.05000    5.04     3.01   0.80826  1.6000
 3.10000    5.06     3.01   0.80797  1.5999
 3.15000    5.07     3.01   0.80787  1.5998
 3.20000    5.09     3.01   0.80783  1.5998
 3.25000    5.11     3.02   0.80774  1.5998
 3.30000    5.12     3.02   0.80774  1.5998
 3.35000    5.14     3.02   0.80711  1.6001
 3.40000    5.15     3.02   0.80714  1.6003
 3.45000    5.17     3.02   0.80692  1.6004
 3.50000    5.18     3.02   0.80744  1.6000
 3.55000    5.20     3.03   0.80668  1.6001
 3.60000    5.20     3.03   0.80736  1.6000
 3.65000    5.21     3.03   0.80743  1.6000
 3.70000    5.22     3.02   0.80774  1.6000
 3.75000    5.23     3.03   0.80745  1.6001
 3.80000    5.24     3.03   0.80753  1.6001
 3.85000    5.25     3.03   0.80716  1.6001
 3.90000    5.26     3.03   0.80668  1.6002
 3.95000    5.27     3.03   0.80664  1.6001
 4.00000    5.28     3.03   0.80631  1.6000
 4.00000    5.29     3.03   0.80664  1.6000
 3.95000    5.29     3.03   0.80633  1.6001
 3.90000    5.29     3.03   0.80663  1.6002
 3.85000    5.30     3.03   0.80667  1.6001
 3.80000    5.32     3.04   0.80702  1.6002
 3.75000    5.33     3.05   0.80725  1.6002
 3.70000    5.34     3.05   0.80738  1.6000
 3.65000    5.35     3.05   0.80706  1.6001
 3.60000    5.36     3.06   0.80700  1.6000
 3.55000    5.37     3.05   0.80744  1.6000
 3.50000    5.38     3.05   0.80779  1.6000
 3.45000    5.38     3.06   0.80790  1.5998
 3.40000    5.38     3.07   0.80812  1.6000
 3.35000    5.39     3.06   0.80831  1.5998
 3.30000    5.40     3.05   0.80899  1.5998
 3.25000    5.40     3.06   0.80888  1.5996
 3.20000    5.40     3.06   0.80889  1.5996
 3.15000    5.41     3.05   0.80996  1.5999
 3.10000    5.42     3.06   0.81085  1.5996
 3.05000    5.42     3.05   0.81027  1.5997
 3.00000    5.42     3.05   0.80902  1.5997
 2.95000    5.43     3.04   0.80898  1.5995
 2.90000    5.44     3.06   0.80825  1.5996
 2.85000    5.45     3.06   0.80827  1.5996
 2.80000    5.45     3.05   0.80812  1.5995
 2.75000    5.46     3.04   0.80798  1.5996
 2.70000    5.46     3.04   0.80833  1.5993
 2.65000    5.47     3.03   0.80882  1.5995
 2.60000    5.47     3.04   0.80982  1.5993
 2.55000    5.48     3.04   0.81128  1.5992
 2.50000    5.49     3.04   0.81003  1.5993
 2.45000    5.50     3.04   0.80805  1.5993
 2.40000    5.51     3.04   0.80631  1.5994
 2.35000    5.51     3.03   0.80513  1.5993
 2.30000    5.52     3.03   0.80360  1.5992
 2.25000    5.53     3.03   0.80194  1.5992
 2.20000    5.53     3.02   0.80020  1.5992
 2.15000    5.54     3.02   0.79822  1.5994
 2.10000    5.55     3.02   0.79719  1.5995
 2.05000    5.56     3.01   0.79638  1.6002
 2.00000    5.56     3.02   0.79795  1.6004
 1.95000    5.57     3.02   0.79895  1.6007
 1.90000    5.58     3.01   0.80075  1.6007
 1.85000    5.58     3.01   0.80222  1.6007
 1.80000    5.59     3.01   0.80285  1.6008
 1.75000    5.59     3.02   0.80325  1.6008
 1.70000    5.58     3.01   0.80365  1.6008
 1.65000    5.58     3.01   0.80387  1.6008
 1.60000    5.58     3.01   0.80498  1.6006
 1.55000    5.57     3.01   0.80542  1.6008
 1.50000    5.56     3.00   0.80604  1.6007
 1.45000    5.55     3.00   0.80663  1.6006
 1.40000    5.54     3.00   0.80620  1.6003
 1.35000    5.53     3.00   0.80712  1.6005
 1.30000    5.52     3.00   0.80764  1.6005
 1.25000    5.51     3.00   0.80808  1.6007
 1.20000    5.51     3.00   0.80839  1.6005
 1.15000    5.50     3.00   0.80837  1.6004
 1.10000    5.49     3.00   0.80853  1.6006
 1.05000    5.48     3.00   0.80857  1.6007
 1.00000    5.47     2.99   0.80892  1.6006
 0.95000    5.46     3.00   0.80924  1.6006
 0.90000    5.45     3.00   0.80927  1.6006
 0.85000    5.44     3.00   0.80991  1.6005
 0.80000    5.43     3.00   0.81031  1.6004
 0.75000    5.42     2.99   0.81041  1.6004
 0.70000    5.41     3.00   0.81101  1.6002
 0.65000    5.40     3.00   0.81194  1.6004
 0.60000    5.39     3.00   0.81204  1.6005
 0.55000    5.38     2.99   0.81225  1.6005
 0.50000    5.38     3.00   0.81336  1.6003
 0.45000    5.37     3.00   0.81502  1.6002
 0.40000    5.37     2.99   0.81683  1.6003
 0.35000    5.36     3.00   0.81527  1.6003
 0.30000    5.36     3.00   0.81415  1.6004
 0.25000    5.35     3.00   0.81255  1.6003
 0.20000    5.34     2.99   0.81187  1.6005
 0.15000    5.34     3.00   0.81230  1.6005
 0.10000    5.34     3.00   0.81171  1.6004
 0.05000    5.35     3.00   0.81152  1.6006
-0.00000    5.36     2.98   0.81207  1.6006
