 Field[T] Tsmpl[K] Tcntr[K] Signal   Mirror[MM]
 0.00000    5.20     2.97   0.97105  1.5961
 0.05000    5.19     2.96   0.97141  1.5958
 0.10000    5.18     2.97   0.97070  1.5956
 0.15000    5.17     2.96   0.97080  1.5959
 0.20000    5.17     2.95   0.97088  1.5959
 0.25000    5.16     2.95   0.97043  1.5960
 0.30000    5.14     2.95   0.97031  1.5960
 0.35000    5.14     2.95   0.97019  1.5960
 0.40000    5.13     2.95   0.97003  1.5960
 0.45000    5.12     2.95   0.97047  1.5961
 0.50000    5.10     2.95   0.97014  1.5960
 0.55000    5.09     2.94   0.96932  1.5960
 0.60000    5.09     2.95   0.96843  1.5960
 0.65000    5.08     2.93   0.96796  1.5960
 0.70000    5.07     2.93   0.96718  1.5960
 0.75000    5.06     2.94   0.96662  1.5960
 0.80000    5.05     2.94   0.96594  1.5962
 0.85000    5.03     2.93   0.96563  1.5959
 0.90000    5.02     2.93   0.96484  1.5959
 0.95000    5.00     2.92   0.96442  1.5960
 1.00000    4.99     2.93   0.96409  1.5959
 1.05000    4.97     2.92   0.96313  1.5960
 1.10000    4.95     2.92   0.96255  1.5959
 1.15000    4.94     2.92   0.96165  1.5958
 1.20000    4.92     2.92   0.96080  1.5959
 1.25000    4.91     2.92   0.95943  1.5959
 1.30000    4.90     2.92   0.95856  1.5958
 1.35000    4.89     2.93   0.95676  1.5957
 1.40000    4.89     2.94   0.95577  1.5953
 1.45000    4.89     2.93   0.95460  1.5955
 1.50000    4.89     2.94   0.95265  1.5952
 1.55000    4.89     2.94   0.95167  1.5947
 1.60000    4.89     2.94   0.95173  1.5942
 1.65000    4.89     2.95   0.95374  1.5936
 1.70000    4.89     2.96   0.95728  1.5934
 1.75000    4.89     2.95   0.95964  1.5935
 1.80000    4.89     2.95   0.96212  1.5937
 1.85000    4.89     2.96   0.96374  1.5937
 1.90000    4.89     2.96   0.96410  1.5937
 1.95000    4.89     2.96   0.96495  1.5935
 2.00000    4.89     2.98   0.96572  1.5935
 2.05000    4.89     2.98   0.96622  1.5939
 2.10000    4.90     2.98   0.96683  1.5940
 2.15000    4.91     2.99   0.96708  1.5940
 2.20000    4.92     2.98   0.96682  1.5939
 2.25000    4.92     2.99   0.96679  1.5940
 2.30000    4.93     2.99   0.96659  1.5940
 2.35000    4.94     2.99   0.96676  1.5942
 2.40000    4.95     2.99   0.96658  1.5943
 2.45000    4.96     3.00   0.96657  1.5941
 2.50000    4.97     3.00   0.96647  1.5942
 2.55000    4.98     3.00   0.96653  1.5943
 2.60000    4.98     3.00   0.96643  1.5943
 2.65000    4.98     2.99   0.96660  1.5942
 2.70000    4.98     2.99   0.96659  1.5944
 2.75000    4.98     3.00   0.96651  1.5946
 2.80000    4.99     3.01   0.96658  1.5943
 2.85000    5.00     3.00   0.96646  1.5944
 2.90000    5.00     3.00   0.96608  1.5945
 2.95000    5.01     3.01   0.96702  1.5946
 3.00000    5.03     3.01   0.96648  1.5945
 3.05000    5.05     3.00   0.96605  1.5943
 3.10000    5.06     3.01   0.96586  1.5945
 3.15000    5.07     3.01   0.96559  1.5945
 3.20000    5.09     3.02   0.96536  1.5944
 3.25000    5.11     3.03   0.96525  1.5944
 3.30000    5.13     3.03   0.96503  1.5944
 3.35000    5.15     3.03   0.96470  1.5946
 3.40000    5.16     3.03   0.96422  1.5946
 3.45000    5.18     3.04   0.96407  1.5947
 3.50000    5.20     3.03   0.96406  1.5945
 3.55000    5.21     3.04   0.96372  1.5946
 3.60000    5.22     3.04   0.96385  1.5947
 3.65000    5.23     3.03   0.96387  1.5947
 3.70000    5.24     3.03   0.96368  1.5949
 3.75000    5.25     3.03   0.96344  1.5949
 3.80000    5.26     3.03   0.96348  1.5949
 3.85000    5.27     3.02   0.96337  1.5949
 3.90000    5.28     3.02   0.96301  1.5948
 3.95000    5.29     3.02   0.96323  1.5948
 4.00000    5.30     3.02   0.96325  1.5948
 4.00000    5.31     3.02   0.96322  1.5948
 3.95000    5.31     3.02   0.96334  1.5949
 3.90000    5.32     3.02   0.96398  1.5948
 3.85000    5.32     3.03   0.96406  1.5947
 3.80000    5.33     3.03   0.96363  1.5946
 3.75000    5.33     3.04   0.96366  1.5947
 3.70000    5.34     3.04   0.96385  1.5945
 3.65000    5.34     3.05   0.96358  1.5946
 3.60000    5.35     3.06   0.96393  1.5946
 3.55000    5.36     3.05   0.96390  1.5946
 3.50000    5.36     3.04   0.96392  1.5946
 3.45000    5.37     3.05   0.96407  1.5945
 3.40000    5.38     3.06   0.96429  1.5945
 3.35000    5.40     3.05   0.96438  1.5945
 3.30000    5.41     3.05   0.96475  1.5947
 3.25000    5.42     3.06   0.96447  1.5947
 3.20000    5.44     3.05   0.96490  1.5948
 3.15000    5.45     3.05   0.96529  1.5947
 3.10000    5.46     3.04   0.96513  1.5947
 3.05000    5.47     3.06   0.96542  1.5947
 3.00000    5.48     3.05   0.96605  1.5947
 2.95000    5.49     3.05   0.96605  1.5947
 2.90000    5.49     3.05   0.96571  1.5945
 2.85000    5.51     3.05   0.96527  1.5943
 2.80000    5.51     3.05   0.96511  1.5942
 2.75000    5.52     3.04   0.96516  1.5943
 2.70000    5.53     3.05   0.96506  1.5944
 2.65000    5.54     3.03   0.96504  1.5944
 2.60000    5.54     3.04   0.96530  1.5946
 2.55000    5.55     3.03   0.96489  1.5945
 2.50000    5.55     3.03   0.96508  1.5943
 2.45000    5.56     3.04   0.96481  1.5943
 2.40000    5.56     3.03   0.96507  1.5944
 2.35000    5.57     3.03   0.96507  1.5943
 2.30000    5.57     3.02   0.96505  1.5943
 2.25000    5.58     3.03   0.96493  1.5942
 2.20000    5.58     3.02   0.96492  1.5941
 2.15000    5.59     3.02   0.96448  1.5942
 2.10000    5.59     3.01   0.96436  1.5940
 2.05000    5.59     3.02   0.96390  1.5940
 2.00000    5.59     3.01   0.96394  1.5939
 1.95000    5.59     3.01   0.96353  1.5937
 1.90000    5.59     3.01   0.96283  1.5935
 1.85000    5.59     3.01   0.96207  1.5935
 1.80000    5.58     3.00   0.96089  1.5936
 1.75000    5.57     3.01   0.95891  1.5934
 1.70000    5.57     3.01   0.95623  1.5933
 1.65000    5.55     3.01   0.95323  1.5936
 1.60000    5.54     3.01   0.95091  1.5942
 1.55000    5.53     3.01   0.95075  1.5948
 1.50000    5.52     3.00   0.95236  1.5953
 1.45000    5.52     2.99   0.95364  1.5955
 1.40000    5.51     3.00   0.95466  1.5957
 1.35000    5.50     3.01   0.95663  1.5958
 1.30000    5.49     3.00   0.95788  1.5959
 1.25000    5.49     3.00   0.95919  1.5958
 1.20000    5.48     2.99   0.96011  1.5959
 1.15000    5.47     3.00   0.96165  1.5958
 1.10000    5.47     3.00   0.96261  1.5960
 1.05000    5.46     3.01   0.96282  1.5959
 1.00000    5.45     3.00   0.96299  1.5961
 0.95000    5.45     3.00   0.96360  1.5959
 0.90000    5.45     3.00   0.96427  1.5960
 0.85000    5.45     3.00   0.96444  1.5960
 0.80000    5.44     3.00   0.96474  1.5960
 0.75000    5.43     3.00   0.96496  1.5961
 0.70000    5.43     3.00   0.96570  1.5959
 0.65000    5.41     3.00   0.96601  1.5960
 0.60000    5.40     3.00   0.96646  1.5961
 0.55000    5.39     3.00   0.96672  1.5960
 0.50000    5.38     2.99   0.96673  1.5960
 0.45000    5.37     2.99   0.96708  1.5961
 0.40000    5.36     3.00   0.96751  1.5958
 0.35000    5.35     3.00   0.96762  1.5959
 0.30000    5.34     3.00   0.96796  1.5958
 0.25000    5.34     2.99   0.96784  1.5957
 0.20000    5.34     2.99   0.96808  1.5959
 0.15000    5.33     3.00   0.96818  1.5959
 0.10000    5.33     3.00   0.96851  1.5959
 0.05000    5.33     3.00   0.96877  1.5960
-0.00000    5.32     2.99   0.96888  1.5960
