 Field[T] Tsmpl[K] Tcntr[K] Signal   Mirror[MM]
 0.00000    5.08     2.94   2.32801  1.6875
 0.05000    5.07     2.93   2.32415  1.6874
 0.10000    5.07     2.95   2.32147  1.6873
 0.15000    5.07     2.93   2.31733  1.6872
 0.20000    5.07     2.95   2.31383  1.6873
 0.25000    5.06     2.92   2.31090  1.6874
 0.30000    5.05     2.94   2.30841  1.6875
 0.35000    5.05     2.94   2.30495  1.6876
 0.40000    5.04     2.94   2.30143  1.6876
 0.45000    5.04     2.94   2.29828  1.6876
 0.50000    5.04     2.94   2.29497  1.6877
 0.55000    5.03     2.97   2.29111  1.6878
 0.60000    5.03     2.93   2.28579  1.6878
 0.65000    5.02     2.93   2.28204  1.6877
 0.70000    5.01     2.93   2.28075  1.6877
 0.75000    5.00     2.92   2.27824  1.6878
 0.80000    4.99     2.92   2.27605  1.6878
 0.85000    4.98     2.92   2.27457  1.6880
 0.90000    4.97     2.94   2.27068  1.6880
 0.95000    4.97     2.93   2.26794  1.6879
 1.00000    4.96     2.91   2.26460  1.6879
 1.05000    4.94     2.94   2.26260  1.6880
 1.10000    4.93     2.90   2.25898  1.6880
 1.15000    4.91     2.91   2.25645  1.6881
 1.20000    4.90     2.91   2.25460  1.6881
 1.25000    4.89     2.92   2.25239  1.6880
 1.30000    4.88     2.91   2.24953  1.6880
 1.35000    4.87     2.92   2.24534  1.6881
 1.40000    4.87     2.91   2.24219  1.6881
 1.45000    4.86     2.92   2.23992  1.6882
 1.50000    4.85     2.91   2.23652  1.6883
 1.55000    4.86     2.92   2.23064  1.6880
 1.60000    4.86     2.91   2.23063  1.6880
 1.65000    4.85     2.92   2.22959  1.6880
 1.70000    4.85     2.92   2.22690  1.6880
 1.75000    4.85     2.93   2.22638  1.6880
 1.80000    4.86     2.94   2.22608  1.6880
 1.85000    4.85     2.95   2.22527  1.6877
 1.90000    4.85     2.96   2.22249  1.6878
 1.95000    4.85     2.95   2.22248  1.6875
 2.00000    4.85     2.96   2.22186  1.6873
 2.05000    4.84     2.97   2.22000  1.6875
 2.10000    4.84     2.97   2.21922  1.6876
 2.15000    4.85     2.98   2.21729  1.6877
 2.20000    4.85     2.99   2.21372  1.6874
 2.25000    4.85     2.98   2.21286  1.6874
 2.30000    4.85     2.99   2.21159  1.6873
 2.35000    4.85     2.99   2.20966  1.6874
 2.40000    4.85     2.98   2.20825  1.6873
 2.45000    4.84     2.99   2.20542  1.6872
 2.50000    4.84     2.99   2.20560  1.6873
 2.55000    4.85     2.99   2.20397  1.6871
 2.60000    4.86     2.99   2.20216  1.6871
 2.65000    4.86     3.00   2.20200  1.6873
 2.70000    4.86     2.99   2.19990  1.6872
 2.75000    4.86     3.00   2.20094  1.6871
 2.80000    4.86     3.01   2.19971  1.6869
 2.85000    4.86     2.99   2.20048  1.6869
 2.90000    4.86     3.00   2.20215  1.6868
 2.95000    4.86     3.01   2.20138  1.6868
 3.00000    4.86     3.00   2.20183  1.6867
 3.05000    4.86     3.01   2.20194  1.6867
 3.10000    4.87     3.00   2.20342  1.6868
 3.15000    4.87     3.01   2.20421  1.6869
 3.20000    4.88     3.01   2.20427  1.6869
 3.25000    4.89     3.01   2.20373  1.6871
 3.30000    4.90     3.01   2.20338  1.6872
 3.35000    4.91     3.02   2.20299  1.6872
 3.40000    4.93     3.01   2.20191  1.6872
 3.45000    4.94     3.00   2.20066  1.6871
 3.50000    4.95     3.02   2.19930  1.6872
 3.55000    4.97     3.01   2.19666  1.6875
 3.60000    4.99     3.01   2.19840  1.6876
 3.65000    5.01     3.03   2.19954  1.6878
 3.70000    5.03     3.02   2.19918  1.6877
 3.75000    5.04     3.03   2.19823  1.6877
 3.80000    5.06     3.01   2.19772  1.6878
 3.85000    5.07     3.02   2.19698  1.6877
 3.90000    5.09     3.01   2.19613  1.6878
 3.95000    5.10     3.03   2.19487  1.6880
 4.00000    5.12     3.01   2.19317  1.6882
 4.00000    5.13     3.02   2.19438  1.6881
 3.95000    5.13     3.02   2.19259  1.6880
 3.90000    5.14     3.04   2.19265  1.6881
 3.85000    5.16     3.03   2.19186  1.6880
 3.80000    5.16     3.04   2.19065  1.6880
 3.75000    5.16     3.04   2.18968  1.6880
 3.70000    5.17     3.07   2.18980  1.6878
 3.65000    5.18     3.05   2.18913  1.6881
 3.60000    5.20     3.08   2.18673  1.6880
 3.55000    5.22     3.07   2.18634  1.6880
 3.50000    5.24     3.08   2.18647  1.6878
 3.45000    5.26     3.10   2.18567  1.6879
 3.40000    5.29     3.10   2.18576  1.6880
 3.35000    5.31     3.10   2.18452  1.6881
 3.30000    5.33     3.12   2.18290  1.6879
 3.25000    5.36     3.10   2.18174  1.6879
 3.20000    5.38     3.11   2.18137  1.6879
 3.15000    5.41     3.12   2.17983  1.6879
 3.10000    5.43     3.11   2.17885  1.6879
 3.05000    5.44     3.11   2.17631  1.6877
 3.00000    5.46     3.11   2.17352  1.6878
 2.95000    5.48     3.12   2.17287  1.6880
 2.90000    5.50     3.10   2.17013  1.6879
 2.85000    5.51     3.10   2.16785  1.6880
 2.80000    5.52     3.09   2.16583  1.6880
 2.75000    5.53     3.10   2.16375  1.6882
 2.70000    5.55     3.10   2.16306  1.6882
 2.65000    5.56     3.09   2.16334  1.6882
 2.60000    5.57     3.08   2.16308  1.6884
 2.55000    5.58     3.07   2.16349  1.6886
 2.50000    5.59     3.09   2.16342  1.6885
 2.45000    5.60     3.06   2.16435  1.6886
 2.40000    5.61     3.06   2.16374  1.6886
 2.35000    5.62     3.06   2.16386  1.6886
 2.30000    5.63     3.08   2.16522  1.6887
 2.25000    5.64     3.06   2.16306  1.6888
 2.20000    5.65     3.06   2.16418  1.6889
 2.15000    5.67     3.06   2.16450  1.6890
 2.10000    5.68     3.05   2.16442  1.6890
 2.05000    5.69     3.04   2.16563  1.6889
 2.00000    5.70     3.04   2.16564  1.6889
 1.95000    5.72     3.05   2.16505  1.6891
 1.90000    5.73     3.04   2.16545  1.6890
 1.85000    5.74     3.03   2.16523  1.6890
 1.80000    5.75     3.02   2.16369  1.6891
 1.75000    5.76     3.03   2.16425  1.6892
 1.70000    5.76     3.02   2.16384  1.6893
 1.65000    5.76     3.02   2.16368  1.6894
 1.60000    5.77     3.02   2.16415  1.6894
 1.55000    5.77     3.02   2.16460  1.6893
 1.50000    5.77     3.03   2.16511  1.6894
 1.45000    5.77     3.01   2.16597  1.6897
 1.40000    5.76     3.02   2.16793  1.6894
 1.35000    5.76     3.01   2.16840  1.6894
 1.30000    5.76     3.01   2.16855  1.6893
 1.25000    5.76     3.01   2.17024  1.6894
 1.20000    5.76     3.01   2.17024  1.6893
 1.15000    5.76     3.01   2.17073  1.6894
 1.10000    5.77     3.02   2.17219  1.6893
 1.05000    5.76     3.00   2.17051  1.6895
 1.00000    5.75     3.01   2.17169  1.6893
 0.95000    5.74     3.00   2.17212  1.6892
 0.90000    5.73     3.01   2.17211  1.6893
 0.85000    5.71     2.99   2.17205  1.6894
 0.80000    5.69     3.00   2.17271  1.6894
 0.75000    5.67     2.99   2.17295  1.6893
 0.70000    5.65     3.01   2.17366  1.6891
 0.65000    5.64     2.99   2.17335  1.6892
 0.60000    5.61     2.99   2.17402  1.6892
 0.55000    5.60     2.98   2.17324  1.6893
 0.50000    5.58     2.99   2.17379  1.6891
 0.45000    5.56     2.99   2.17293  1.6891
 0.40000    5.55     3.00   2.17346  1.6893
 0.35000    5.52     2.98   2.17357  1.6892
 0.30000    5.50     2.99   2.17312  1.6893
 0.25000    5.47     2.99   2.17125  1.6893
 0.20000    5.45     3.00   2.17250  1.6891
 0.15000    5.42     2.99   2.17275  1.6891
 0.10000    5.41     3.00   2.17375  1.6892
 0.05000    5.39     2.98   2.17317  1.6892
-0.00000    5.37     2.99   2.17270  1.6893
