 Field[T] Tsmpl[K] Tcntr[K] Signal   Mirror[MM]
 0.00000    4.89     2.93   0.70255  1.6503
 0.05000    4.88     2.92   0.70240  1.6505
 0.10000    4.87     2.93   0.70189  1.6504
 0.15000    4.86     2.93   0.70164  1.6504
 0.20000    4.86     2.94   0.70148  1.6505
 0.25000    4.86     2.94   0.70121  1.6503
 0.30000    4.85     2.94   0.70070  1.6502
 0.35000    4.84     2.93   0.70059  1.6504
 0.40000    4.83     2.94   0.70018  1.6502
 0.45000    4.82     2.94   0.70019  1.6502
 0.50000    4.82     2.96   0.69981  1.6502
 0.55000    4.82     2.95   0.69937  1.6502
 0.60000    4.82     2.95   0.69946  1.6502
 0.65000    4.81     2.95   0.69921  1.6500
 0.70000    4.81     2.96   0.69844  1.6502
 0.75000    4.81     2.94   0.69774  1.6503
 0.80000    4.78     2.94   0.69767  1.6504
 0.85000    4.78     2.95   0.69726  1.6506
 0.90000    4.77     2.93   0.69669  1.6503
 0.95000    4.76     2.93   0.69621  1.6506
 1.00000    4.75     2.93   0.69577  1.6503
 1.05000    4.73     2.92   0.69533  1.6501
 1.10000    4.72     2.91   0.69467  1.6500
 1.15000    4.71     2.93   0.69403  1.6501
 1.20000    4.72     2.91   0.69312  1.6500
 1.25000    4.70     2.92   0.69276  1.6501
 1.30000    4.70     2.92   0.69219  1.6500
 1.35000    4.70     2.93   0.69160  1.6500
 1.40000    4.70     2.94   0.69159  1.6499
 1.45000    4.70     2.95   0.69112  1.6498
 1.50000    4.70     2.94   0.69059  1.6495
 1.55000    4.69     2.94   0.69069  1.6493
 1.60000    4.68     2.91   0.69059  1.6493
 1.65000    4.67     2.94   0.69060  1.6491
 1.70000    4.66     2.94   0.69024  1.6492
 1.75000    4.66     2.94   0.69032  1.6491
 1.80000    4.65     2.95   0.68986  1.6492
 1.85000    4.64     2.96   0.68956  1.6492
 1.90000    4.63     2.96   0.68964  1.6491
 1.95000    4.62     2.97   0.68933  1.6491
 2.00000    4.61     2.97   0.68910  1.6489
 2.05000    4.60     2.96   0.68861  1.6490
 2.10000    4.59     2.98   0.68854  1.6490
 2.15000    4.59     2.98   0.68832  1.6489
 2.20000    4.58     3.00   0.68802  1.6487
 2.25000    4.59     2.99   0.68825  1.6486
 2.30000    4.60     2.99   0.68823  1.6484
 2.35000    4.61     3.00   0.68887  1.6482
 2.40000    4.62     3.00   0.68895  1.6480
 2.45000    4.63     3.00   0.68915  1.6479
 2.50000    4.64     3.01   0.68990  1.6481
 2.55000    4.66     3.00   0.69013  1.6479
 2.60000    4.66     3.00   0.69024  1.6481
 2.65000    4.68     3.00   0.69088  1.6483
 2.70000    4.69     3.00   0.69136  1.6483
 2.75000    4.71     3.01   0.69149  1.6484
 2.80000    4.72     3.01   0.69143  1.6484
 2.85000    4.73     3.00   0.69172  1.6484
 2.90000    4.74     3.02   0.69186  1.6487
 2.95000    4.76     3.01   0.69187  1.6486
 3.00000    4.78     3.02   0.69195  1.6486
 3.05000    4.80     3.02   0.69206  1.6487
 3.10000    4.81     3.01   0.69201  1.6487
 3.15000    4.83     3.02   0.69205  1.6488
 3.20000    4.85     3.03   0.69232  1.6489
 3.25000    4.88     3.03   0.69215  1.6493
 3.30000    4.90     3.03   0.69232  1.6492
 3.35000    4.91     3.03   0.69229  1.6493
 3.40000    4.93     3.04   0.69187  1.6494
 3.45000    4.94     3.04   0.69194  1.6493
 3.50000    4.95     3.03   0.69246  1.6494
 3.55000    4.96     3.03   0.69207  1.6494
 3.60000    4.97     3.04   0.69180  1.6493
 3.65000    4.98     3.04   0.69196  1.6493
 3.70000    5.00     3.04   0.69179  1.6493
 3.75000    5.01     3.04   0.69172  1.6495
 3.80000    5.02     3.04   0.69192  1.6494
 3.85000    5.02     3.04   0.69168  1.6495
 3.90000    5.03     3.03   0.69170  1.6492
 3.95000    5.03     3.04   0.69160  1.6493
 4.00000    5.02     3.04   0.69170  1.6493
 4.05000    5.02     3.04   0.69156  1.6493
 4.10000    5.02     3.04   0.69140  1.6494
 4.15000    5.01     3.04   0.69158  1.6495
 4.20000    5.01     3.06   0.69137  1.6494
 4.25000    5.02     3.04   0.69123  1.6494
 4.30000    5.02     3.05   0.69146  1.6494
 4.35000    5.03     3.05   0.69102  1.6494
 4.40000    5.03     3.04   0.69114  1.6494
 4.45000    5.04     3.04   0.69114  1.6494
 4.50000    5.04     3.04   0.69118  1.6495
 4.55000    5.05     3.03   0.69099  1.6497
 4.60000    5.05     3.03   0.69081  1.6498
 4.65000    5.06     3.05   0.69096  1.6498
 4.70000    5.07     3.03   0.69050  1.6498
 4.75000    5.07     3.04   0.69052  1.6498
 4.80000    5.08     3.04   0.69058  1.6498
 4.85000    5.09     3.04   0.69048  1.6498
 4.90000    5.09     3.04   0.69008  1.6499
 4.95000    5.09     3.05   0.69017  1.6501
 5.00000    5.10     3.03   0.69036  1.6499
 5.00000    5.10     3.03   0.69025  1.6498
 4.95000    5.10     3.03   0.69010  1.6499
 4.90000    5.11     3.07   0.69060  1.6500
 4.85000    5.13     3.06   0.69024  1.6499
 4.80000    5.15     3.08   0.69070  1.6500
 4.75000    5.17     3.11   0.69080  1.6499
 4.70000    5.20     3.11   0.69096  1.6497
 4.65000    5.23     3.12   0.69121  1.6498
 4.60000    5.24     3.13   0.69111  1.6499
 4.55000    5.28     3.13   0.69131  1.6499
 4.50000    5.29     3.13   0.69132  1.6500
 4.45000    5.32     3.15   0.69164  1.6498
 4.40000    5.35     3.14   0.69165  1.6498
 4.35000    5.36     3.15   0.69188  1.6498
 4.30000    5.39     3.14   0.69210  1.6499
 4.25000    5.41     3.17   0.69199  1.6500
 4.20000    5.43     3.14   0.69201  1.6501
 4.15000    5.45     3.13   0.69232  1.6500
 4.10000    5.46     3.13   0.69229  1.6499
 4.05000    5.48     3.13   0.69232  1.6500
 4.00000    5.50     3.14   0.69267  1.6498
 3.95000    5.52     3.11   0.69258  1.6498
 3.90000    5.53     3.11   0.69263  1.6496
 3.85000    5.55     3.11   0.69255  1.6496
 3.80000    5.56     3.11   0.69306  1.6496
 3.75000    5.58     3.12   0.69328  1.6496
 3.70000    5.59     3.10   0.69320  1.6496
 3.65000    5.61     3.10   0.69328  1.6497
 3.60000    5.61     3.09   0.69353  1.6496
 3.55000    5.63     3.10   0.69353  1.6496
 3.50000    5.64     3.08   0.69390  1.6497
 3.45000    5.65     3.08   0.69387  1.6495
 3.40000    5.67     3.09   0.69366  1.6496
 3.35000    5.68     3.06   0.69407  1.6494
 3.30000    5.68     3.06   0.69388  1.6494
 3.25000    5.69     3.06   0.69264  1.6497
 3.20000    5.70     3.07   0.69421  1.6497
 3.15000    5.72     3.07   0.69423  1.6497
 3.10000    5.74     3.08   0.69450  1.6491
 3.05000    5.75     3.04   0.69445  1.6495
 3.00000    5.76     3.04   0.69415  1.6494
 2.95000    5.76     3.04   0.69412  1.6496
 2.90000    5.77     3.04   0.69418  1.6497
 2.85000    5.78     3.04   0.69403  1.6497
 2.80000    5.79     3.03   0.69398  1.6494
 2.75000    5.79     3.03   0.69398  1.6491
 2.70000    5.80     3.04   0.69368  1.6493
 2.65000    5.81     3.02   0.69346  1.6489
 2.60000    5.81     3.03   0.69291  1.6490
 2.55000    5.82     3.02   0.69264  1.6491
 2.50000    5.82     3.01   0.69199  1.6498
 2.45000    5.83     3.04   0.69164  1.6494
 2.40000    5.84     3.01   0.69177  1.6495
 2.35000    5.83     3.02   0.69139  1.6494
 2.30000    5.84     3.01   0.69109  1.6496
 2.25000    5.84     3.01   0.69102  1.6497
 2.20000    5.84     3.02   0.69111  1.6498
 2.15000    5.84     3.03   0.69135  1.6499
 2.10000    5.84     3.01   0.69160  1.6499
 2.05000    5.84     3.01   0.69179  1.6501
 2.00000    5.84     3.01   0.69219  1.6502
 1.95000    5.84     3.01   0.69242  1.6501
 1.90000    5.84     3.01   0.69233  1.6503
 1.85000    5.84     3.01   0.69282  1.6504
 1.80000    5.84     3.01   0.69291  1.6503
 1.75000    5.84     3.00   0.69316  1.6502
 1.70000    5.85     3.01   0.69328  1.6504
 1.65000    5.85     3.00   0.69347  1.6505
 1.60000    5.85     3.01   0.69393  1.6503
 1.55000    5.85     3.01   0.69395  1.6504
 1.50000    5.85     3.01   0.69406  1.6504
 1.45000    5.85     3.01   0.69397  1.6505
 1.40000    5.85     3.01   0.69421  1.6505
 1.35000    5.85     3.00   0.69464  1.6506
 1.30000    5.84     3.00   0.69510  1.6510
 1.25000    5.84     3.01   0.69554  1.6510
 1.20000    5.84     2.99   0.69632  1.6508
 1.15000    5.83     3.00   0.69665  1.6512
 1.10000    5.82     2.99   0.69685  1.6515
 1.05000    5.81     3.02   0.69750  1.6516
 1.00000    5.81     2.99   0.69814  1.6515
 0.95000    5.80     3.00   0.69835  1.6515
 0.90000    5.80     2.99   0.69797  1.6514
 0.85000    5.80     2.99   0.69857  1.6512
 0.80000    5.79     3.00   0.69882  1.6508
 0.75000    5.78     3.01   0.69897  1.6512
 0.70000    5.77     3.00   0.69940  1.6511
 0.65000    5.76     3.00   0.69925  1.6511
 0.60000    5.74     2.99   0.69962  1.6512
 0.55000    5.72     3.02   0.70004  1.6512
 0.50000    5.70     2.99   0.70022  1.6512
 0.45000    5.67     3.00   0.70018  1.6509
 0.40000    5.64     2.98   0.70038  1.6509
 0.35000    5.61     3.01   0.70038  1.6508
 0.30000    5.59     2.99   0.70038  1.6508
 0.25000    5.56     2.99   0.70033  1.6510
 0.20000    5.53     2.99   0.70041  1.6510
 0.15000    5.51     3.00   0.70093  1.6510
 0.10000    5.48     2.99   0.70121  1.6510
 0.05000    5.45     2.99   0.70108  1.6509
-0.00000    5.44     2.99   0.70126  1.6511
