 Field[T] Tsmpl[K] Tcntr[K] Signal
 0.00000    5.13     2.98   0.93710
 0.05000    5.11     2.98   0.93910
 0.10000    5.10     2.98   0.94040
 0.15000    5.07     2.97   0.94230
 0.20000    5.06     2.98   0.94210
 0.25000    5.03     2.98   0.94440
 0.30000    5.02     2.99   0.94510
 0.35000    5.01     2.97   0.94800
 0.40000    4.99     2.98   0.94870
 0.45000    4.96     2.98   0.95100
 0.50000    4.95     2.99   0.95420
 0.55000    4.93     2.99   0.95600
 0.60000    4.92     2.98   0.95670
 0.65000    4.90     2.98   0.95770
 0.70000    4.88     2.97   0.95790
 0.75000    4.87     2.99   0.96100
 0.80000    4.85     2.96   0.96000
 0.85000    4.83     2.96   0.96220
 0.90000    4.80     2.94   0.96250
 0.95000    4.77     2.92   0.96440
 1.00000    4.73     2.91   0.96420
 1.05000    4.69     2.88   0.96830
 1.10000    4.65     2.89   0.96730
 1.15000    4.62     2.90   0.97020
 1.20000    4.60     2.89   0.97110
 1.25000    4.58     2.87   0.97280
 1.30000    4.55     2.87   0.97150
 1.35000    4.53     2.86   0.97800
 1.40000    4.51     2.89   0.97980
 1.45000    4.50     2.85   0.97830
 1.50000    4.49     2.86   0.97890
 1.55000    4.48     2.86   0.98200
 1.60000    4.48     2.87   0.97810
 1.65000    4.49     2.90   0.97900
 1.70000    4.50     2.90   0.97940
 1.75000    4.51     2.88   0.97800
 1.80000    4.51     2.90   0.97770
 1.85000    4.53     2.91   0.98080
 1.90000    4.55     2.92   0.97860
 1.95000    4.57     2.93   0.97710
 2.00000    4.59     2.94   0.97680
 2.05000    4.61     2.94   0.97700
 2.10000    4.62     2.95   0.97660
 2.15000    4.65     2.97   0.97660
 2.20000    4.66     2.96   0.97620
 2.25000    4.67     2.96   0.97380
 2.30000    4.69     2.96   0.97300
 2.35000    4.70     2.96   0.96990
 2.40000    4.70     2.98   0.96840
 2.45000    4.72     2.98   0.96540
 2.50000    4.73     2.99   0.96600
 2.55000    4.74     3.00   0.96820
 2.60000    4.76     3.00   0.96830
 2.65000    4.77     2.99   0.96980
 2.70000    4.79     2.99   0.97340
 2.75000    4.80     2.99   0.97310
 2.80000    4.81     3.00   0.97570
 2.85000    4.82     2.99   0.97570
 2.90000    4.82     3.00   0.97520
 2.95000    4.83     3.00   0.97570
 3.00000    4.83     3.00   0.97730
 3.05000    4.83     3.00   0.97920
 3.10000    4.82     3.01   0.97870
 3.15000    4.82     2.99   0.97900
 3.20000    4.81     3.00   0.97830
 3.25000    4.81     3.03   0.97890
 3.30000    4.82     3.02   0.98080
 3.35000    4.82     3.02   0.98000
 3.40000    4.82     3.02   0.97960
 3.45000    4.81     3.02   0.98120
 3.50000    4.81     3.01   0.98260
 3.55000    4.81     3.02   0.98300
 3.60000    4.81     3.01   0.98390
 3.65000    4.81     3.02   0.98340
 3.70000    4.81     3.01   0.98270
 3.75000    4.82     3.01   0.98520
 3.80000    4.83     3.02   0.98580
 3.85000    4.83     3.03   0.98740
 3.90000    4.85     3.03   0.98840
 3.95000    4.87     3.02   0.98960
 4.00000    4.88     3.03   0.98710
 4.05000    4.89     3.03   0.98870
 4.10000    4.90     3.02   0.99230
 4.15000    4.91     3.03   0.99320
 4.20000    4.92     3.03   0.99320
 4.25000    4.92     3.03   0.99060
 4.30000    4.92     3.03   0.99330
 4.35000    4.93     3.02   0.99200
 4.40000    4.92     3.03   0.99390
 4.45000    4.92     3.03   0.99160
 4.50000    4.92     3.03   0.99300
 4.55000    4.91     3.03   0.99350
 4.60000    4.91     3.04   0.99410
 4.65000    4.91     3.04   0.99610
 4.70000    4.91     3.03   0.99730
 4.75000    4.90     3.03   0.99700
 4.80000    4.90     3.04   0.99880
 4.85000    4.90     3.04   1.00010
 4.90000    4.90     3.03   1.00290
 4.95000    4.90     3.03   1.00550
 5.00000    4.91     3.05   1.00730
 5.00000    4.91     3.05   1.00510
 4.95000    4.92     3.03   1.00610
 4.90000    4.92     3.04   1.00350
 4.85000    4.93     3.04   1.00380
 4.80000    4.95     3.07   1.00360
 4.75000    4.97     3.06   1.00470
 4.70000    5.00     3.09   1.00140
 4.65000    5.02     3.08   1.00140
 4.60000    5.04     3.09   0.99820
 4.55000    5.07     3.10   0.99820
 4.50000    5.09     3.09   0.99570
 4.45000    5.11     3.09   0.99430
 4.40000    5.12     3.10   0.99320
 4.35000    5.14     3.09   0.99880
 4.30000    5.15     3.10   0.99510
 4.25000    5.16     3.08   0.99590
 4.20000    5.17     3.08   0.99480
 4.15000    5.17     3.09   0.99430
 4.10000    5.18     3.07   0.99200
 4.05000    5.19     3.09   0.98920
 4.00000    5.20     3.07   0.99020
 3.95000    5.20     3.08   0.98920
 3.90000    5.21     3.07   0.99070
 3.85000    5.21     3.08   0.98810
 3.80000    5.21     3.08   0.98560
 3.75000    5.22     3.06   0.98590
 3.70000    5.22     3.06   0.98480
 3.65000    5.23     3.06   0.98520
 3.60000    5.23     3.06   0.98470
 3.55000    5.23     3.06   0.98710
 3.50000    5.24     3.06   0.98340
 3.45000    5.24     3.04   0.98520
 3.40000    5.25     3.04   0.98310
 3.35000    5.25     3.04   0.98450
 3.30000    5.25     3.03   0.98200
 3.25000    5.25     3.05   0.98330
 3.20000    5.26     3.04   0.98380
 3.15000    5.27     3.03   0.98020
 3.10000    5.27     3.04   0.98190
 3.05000    5.27     3.04   0.98230
 3.00000    5.28     3.04   0.98110
 2.95000    5.29     3.03   0.98290
 2.90000    5.29     3.03   0.98360
 2.85000    5.30     3.03   0.98230
 2.80000    5.31     3.04   0.98070
 2.75000    5.31     3.04   0.97660
 2.70000    5.32     3.03   0.97520
 2.65000    5.34     3.05   0.97350
 2.60000    5.34     3.02   0.97340
 2.55000    5.35     3.03   0.97140
 2.50000    5.35     3.04   0.97110
 2.45000    5.35     3.02   0.97030
 2.40000    5.36     3.02   0.97310
 2.35000    5.36     3.03   0.97530
 2.30000    5.37     3.01   0.97780
 2.25000    5.37     3.01   0.97880
 2.20000    5.37     3.01   0.98270
 2.15000    5.38     3.01   0.98400
 2.10000    5.38     3.01   0.98440
 2.05000    5.38     3.03   0.98790
 2.00000    5.40     3.01   0.98580
 1.95000    5.41     3.02   0.98610
 1.90000    5.41     3.03   0.98520
 1.85000    5.42     3.02   0.98390
 1.80000    5.42     3.01   0.98600
 1.75000    5.42     3.01   0.98490
 1.70000    5.42     3.02   0.98520
 1.65000    5.42     3.01   0.98390
 1.60000    5.42     3.01   0.98720
 1.55000    5.42     3.01   0.98660
 1.50000    5.41     3.00   0.98740
 1.45000    5.40     2.99   0.98770
 1.40000    5.39     3.02   0.98850
 1.35000    5.39     3.00   0.98860
 1.30000    5.38     3.01   0.98920
 1.25000    5.37     3.00   0.98950
 1.20000    5.37     3.01   0.98700
 1.15000    5.36     3.00   0.98380
 1.10000    5.36     3.00   0.98420
 1.05000    5.36     2.99   0.98490
 1.00000    5.35     3.00   0.98060
 0.95000    5.36     3.01   0.98220
 0.90000    5.36     2.99   0.98070
 0.85000    5.36     3.00   0.98290
 0.80000    5.36     3.01   0.98170
 0.75000    5.36     3.00   0.97870
 0.70000    5.36     3.00   0.97920
 0.65000    5.36     3.00   0.97850
 0.60000    5.36     3.02   0.97910
 0.55000    5.36     3.00   0.97850
 0.50000    5.36     3.00   0.97800
 0.45000    5.36     3.00   0.97820
 0.40000    5.36     3.01   0.97680
 0.35000    5.36     3.00   0.97620
 0.30000    5.37     3.00   0.97600
 0.25000    5.38     3.01   0.97600
 0.20000    5.39     3.00   0.97630
 0.15000    5.39     3.00   0.97590
 0.10000    5.39     2.99   0.97400
 0.05000    5.39     3.00   0.97230
-0.00000    5.38     3.00   0.97520
