 Field[T] Tsmpl[K] Tcntr[K] Signal
 0.00000    5.16     2.97   6.51840
 0.05000    5.16     2.96   6.51560
 0.10000    5.16     2.97   6.51660
 0.15000    5.15     2.96   6.51860
 0.20000    5.15     2.95   6.51710
 0.25000    5.14     2.95   6.52060
 0.30000    5.13     2.94   6.51670
 0.35000    5.11     2.96   6.51610
 0.40000    5.11     2.95   6.51300
 0.45000    5.10     2.95   6.51020
 0.50000    5.08     2.96   6.50270
 0.55000    5.07     2.94   6.50510
 0.60000    5.05     2.94   6.50630
 0.65000    5.05     2.95   6.50080
 0.70000    5.04     2.94   6.49930
 0.75000    5.03     2.93   6.49980
 0.80000    5.01     2.94   6.49490
 0.85000    5.01     2.95   6.49400
 0.90000    5.00     2.94   6.49310
 0.95000    4.98     2.94   6.49120
 1.00000    4.97     2.95   6.48500
 1.05000    4.96     2.94   6.48270
 1.10000    4.95     2.94   6.47650
 1.15000    4.94     2.94   6.47360
 1.20000    4.93     2.94   6.47200
 1.25000    4.92     2.93   6.46690
 1.30000    4.91     2.95   6.46400
 1.35000    4.90     2.94   6.45470
 1.40000    4.89     2.94   6.44630
 1.45000    4.89     2.94   6.44100
 1.50000    4.88     2.92   6.43030
 1.55000    4.87     2.93   6.42250
 1.60000    4.86     2.94   6.41510
 1.65000    4.86     2.94   6.40390
 1.70000    4.86     2.96   6.38980
 1.75000    4.86     2.94   6.37520
 1.80000    4.86     2.94   6.36410
 1.85000    4.87     2.96   6.35410
 1.90000    4.88     2.97   6.35370
 1.95000    4.89     2.95   6.36370
 2.00000    4.90     2.95   6.37320
 2.05000    4.90     2.96   6.38340
 2.10000    4.92     2.96   6.39220
 2.15000    4.93     2.96   6.40460
 2.20000    4.94     2.96   6.39450
 2.25000    4.95     2.96   6.39500
 2.30000    4.95     2.97   6.39390
 2.35000    4.96     2.97   6.39960
 2.40000    4.97     2.97   6.39480
 2.45000    4.98     2.97   6.38760
 2.50000    4.99     2.97   6.38500
 2.55000    5.00     2.99   6.38250
 2.60000    5.01     2.98   6.37870
 2.65000    5.01     2.98   6.37740
 2.70000    5.02     2.98   6.37700
 2.75000    5.03     3.00   6.37670
 2.80000    5.03     2.98   6.37480
 2.85000    5.04     3.00   6.37380
 2.90000    5.05     3.00   6.37770
 2.95000    5.05     2.99   6.37510
 3.00000    5.05     2.99   6.37560
 3.05000    5.05     3.00   6.37460
 3.10000    5.05     3.00   6.37330
 3.15000    5.05     2.99   6.37580
 3.20000    5.05     2.99   6.37230
 3.25000    5.04     2.99   6.37510
 3.30000    5.04     3.01   6.37480
 3.35000    5.04     3.00   6.37960
 3.40000    5.04     3.00   6.37600
 3.45000    5.04     3.00   6.37080
 3.50000    5.04     3.00   6.36750
 3.55000    5.04     3.01   6.36570
 3.60000    5.03     3.00   6.36320
 3.65000    5.02     3.00   6.36000
 3.70000    5.01     3.01   6.35780
 3.75000    5.01     2.99   6.35380
 3.80000    5.00     3.00   6.35170
 3.85000    5.00     3.00   6.34900
 3.90000    4.99     3.01   6.34960
 3.95000    4.99     3.00   6.34530
 4.00000    4.99     3.00   6.34460
 4.05000    4.98     3.00   6.34290
 4.10000    4.98     3.01   6.34130
 4.15000    4.99     3.01   6.34190
 4.20000    4.99     3.00   6.33860
 4.25000    4.99     3.01   6.33800
 4.30000    4.99     3.00   6.34080
 4.35000    5.00     3.01   6.33970
 4.40000    5.00     3.01   6.33900
 4.45000    5.01     3.00   6.34170
 4.50000    5.01     3.01   6.33900
 4.55000    5.01     3.00   6.33580
 4.60000    5.02     3.01   6.33260
 4.65000    5.01     3.01   6.33500
 4.70000    5.01     3.00   6.33540
 4.75000    5.01     3.02   6.33190
 4.80000    5.01     3.00   6.33310
 4.85000    5.01     3.01   6.33340
 4.90000    5.01     3.00   6.33260
 4.95000    5.01     3.02   6.33230
 5.00000    5.01     3.00   6.33000
 5.00000    5.01     3.01   6.33440
 4.95000    5.01     3.00   6.33250
 4.90000    5.01     3.01   6.33210
 4.85000    5.02     3.01   6.33320
 4.80000    5.03     3.01   6.33840
 4.75000    5.05     3.04   6.33320
 4.70000    5.07     3.02   6.33890
 4.65000    5.08     3.03   6.34110
 4.60000    5.09     3.03   6.34510
 4.55000    5.10     3.04   6.34280
 4.50000    5.12     3.05   6.34530
 4.45000    5.13     3.05   6.35440
 4.40000    5.14     3.05   6.35430
 4.35000    5.14     3.05   6.34370
 4.30000    5.15     3.05   6.34230
 4.25000    5.16     3.05   6.34710
 4.20000    5.17     3.05   6.34120
 4.15000    5.17     3.07   6.33590
 4.10000    5.19     3.07   6.33910
 4.05000    5.20     3.05   6.34600
 4.00000    5.21     3.05   6.34610
 3.95000    5.22     3.06   6.34960
 3.90000    5.23     3.05   6.34740
 3.85000    5.24     3.05   6.34740
 3.80000    5.24     3.04   6.34750
 3.75000    5.25     3.06   6.34960
 3.70000    5.26     3.05   6.35060
 3.65000    5.27     3.05   6.35030
 3.60000    5.28     3.03   6.35040
 3.55000    5.28     3.05   6.35180
 3.50000    5.29     3.03   6.35650
 3.45000    5.29     3.03   6.35770
 3.40000    5.30     3.03   6.35880
 3.35000    5.30     3.05   6.35530
 3.30000    5.31     3.03   6.35640
 3.25000    5.31     3.04   6.35990
 3.20000    5.32     3.03   6.35540
 3.15000    5.32     3.03   6.35830
 3.10000    5.34     3.05   6.36050
 3.05000    5.34     3.04   6.35950
 3.00000    5.35     3.04   6.35910
 2.95000    5.36     3.04   6.36050
 2.90000    5.36     3.02   6.35610
 2.85000    5.37     3.03   6.35770
 2.80000    5.37     3.02   6.35720
 2.75000    5.37     3.02   6.35810
 2.70000    5.36     3.03   6.35630
 2.65000    5.36     3.01   6.35860
 2.60000    5.36     3.01   6.35680
 2.55000    5.36     3.01   6.36090
 2.50000    5.36     3.03   6.36340
 2.45000    5.35     3.00   6.36390
 2.40000    5.35     3.00   6.36830
 2.35000    5.34     3.00   6.36820
 2.30000    5.34     3.01   6.37170
 2.25000    5.34     3.00   6.37360
 2.20000    5.34     3.00   6.37770
 2.15000    5.33     3.00   6.37380
 2.10000    5.33     3.00   6.37110
 2.05000    5.33     3.00   6.36440
 2.00000    5.33     3.00   6.35220
 1.95000    5.33     3.00   6.34520
 1.90000    5.32     2.99   6.33370
 1.85000    5.32     3.01   6.33090
 1.80000    5.32     2.99   6.33990
 1.75000    5.32     3.00   6.35040
 1.70000    5.33     3.01   6.36480
 1.65000    5.33     3.01   6.37580
 1.60000    5.33     3.01   6.38480
 1.55000    5.33     3.00   6.39410
 1.50000    5.33     3.01   6.40190
 1.45000    5.33     3.00   6.40940
 1.40000    5.33     3.00   6.41560
 1.35000    5.32     3.00   6.42170
 1.30000    5.32     3.01   6.42600
 1.25000    5.31     3.00   6.43390
 1.20000    5.31     3.00   6.43640
 1.15000    5.31     3.00   6.44280
 1.10000    5.31     3.01   6.44470
 1.05000    5.31     2.99   6.44660
 1.00000    5.31     2.99   6.45200
 0.95000    5.31     3.00   6.45570
 0.90000    5.30     2.99   6.45650
 0.85000    5.30     3.00   6.46150
 0.80000    5.30     3.00   6.46290
 0.75000    5.30     3.01   6.46520
 0.70000    5.30     2.99   6.47020
 0.65000    5.30     3.01   6.47280
 0.60000    5.30     2.99   6.47710
 0.55000    5.29     3.00   6.47810
 0.50000    5.28     3.00   6.48150
 0.45000    5.26     3.00   6.47850
 0.40000    5.25     3.02   6.47930
 0.35000    5.24     3.00   6.48180
 0.30000    5.23     2.99   6.48240
 0.25000    5.22     2.99   6.48500
 0.20000    5.22     3.00   6.48850
 0.15000    5.22     2.99   6.48580
 0.10000    5.22     3.00   6.49250
 0.05000    5.23     2.99   6.48910
-0.00000    5.23     3.01   6.49000
