 Field[T] Tsmpl[K] Tcntr[K] Signal
 0.00000    5.21     2.98   5.58810
 0.05000    5.20     2.98   5.59090
 0.10000    5.18     2.97   5.59280
 0.15000    5.18     2.98   5.59300
 0.20000    5.17     2.97   5.59590
 0.25000    5.16     2.98   5.59650
 0.30000    5.15     2.97   5.59300
 0.35000    5.14     2.99   5.58920
 0.40000    5.14     2.97   5.59040
 0.45000    5.13     2.97   5.59040
 0.50000    5.12     2.98   5.59230
 0.55000    5.11     2.97   5.59520
 0.60000    5.11     2.96   5.59760
 0.65000    5.09     2.97   5.59920
 0.70000    5.09     2.96   5.60370
 0.75000    5.08     2.97   5.60230
 0.80000    5.06     2.95   5.59470
 0.85000    5.04     2.97   5.58720
 0.90000    5.02     2.96   5.59110
 0.95000    5.00     2.95   5.59060
 1.00000    4.98     2.97   5.58630
 1.05000    4.97     2.94   5.58710
 1.10000    4.94     2.95   5.58440
 1.15000    4.93     2.94   5.57870
 1.20000    4.91     2.95   5.58230
 1.25000    4.90     2.94   5.58130
 1.30000    4.89     2.95   5.58000
 1.35000    4.87     2.93   5.58230
 1.40000    4.86     2.95   5.58040
 1.45000    4.85     2.94   5.57970
 1.50000    4.84     2.94   5.58120
 1.55000    4.83     2.94   5.57680
 1.60000    4.83     2.95   5.57770
 1.65000    4.83     2.94   5.57300
 1.70000    4.83     2.94   5.57660
 1.75000    4.83     2.95   5.57400
 1.80000    4.83     2.94   5.56320
 1.85000    4.83     2.93   5.56920
 1.90000    4.83     2.94   5.56480
 1.95000    4.83     2.95   5.56030
 2.00000    4.85     2.94   5.55640
 2.05000    4.86     2.95   5.54690
 2.10000    4.88     2.96   5.53720
 2.15000    4.91     2.96   5.52570
 2.20000    4.93     2.96   5.50680
 2.25000    4.95     2.97   5.49390
 2.30000    4.96     2.97   5.47570
 2.35000    4.97     2.99   5.46930
 2.40000    4.98     2.98   5.47050
 2.45000    4.98     2.98   5.47890
 2.50000    4.98     2.98   5.48340
 2.55000    4.98     2.99   5.49100
 2.60000    4.98     2.98   5.49340
 2.65000    4.98     2.98   5.50340
 2.70000    4.98     2.99   5.50470
 2.75000    4.98     3.00   5.51080
 2.80000    4.99     2.99   5.51340
 2.85000    4.99     2.99   5.51360
 2.90000    4.99     3.00   5.51680
 2.95000    4.99     3.01   5.51840
 3.00000    4.99     3.00   5.52370
 3.05000    4.99     2.98   5.52110
 3.10000    4.99     3.00   5.52320
 3.15000    4.99     3.00   5.52710
 3.20000    4.99     3.00   5.52980
 3.25000    5.00     3.01   5.52780
 3.30000    5.01     3.01   5.53140
 3.35000    5.02     3.03   5.53440
 3.40000    5.03     3.01   5.53920
 3.45000    5.04     3.01   5.53970
 3.50000    5.04     3.02   5.54280
 3.55000    5.05     3.02   5.54330
 3.60000    5.07     3.01   5.54290
 3.65000    5.07     3.01   5.54530
 3.70000    5.08     3.01   5.55220
 3.75000    5.10     3.01   5.55590
 3.80000    5.11     3.01   5.55970
 3.85000    5.12     3.01   5.56530
 3.90000    5.13     3.01   5.56780
 3.95000    5.13     3.02   5.57600
 4.00000    5.15     3.01   5.58610
 4.05000    5.16     3.01   5.58020
 4.10000    5.17     3.01   5.57860
 4.15000    5.18     3.02   5.57530
 4.20000    5.19     3.01   5.57020
 4.25000    5.19     3.01   5.56550
 4.30000    5.18     3.01   5.56800
 4.35000    5.18     3.00   5.57200
 4.40000    5.18     3.02   5.57210
 4.45000    5.18     3.01   5.57210
 4.50000    5.17     3.01   5.57640
 4.55000    5.17     3.03   5.58780
 4.60000    5.17     3.01   5.59170
 4.65000    5.17     3.02   5.59600
 4.70000    5.17     3.01   5.60100
 4.75000    5.17     3.02   5.60920
 4.80000    5.17     3.01   5.61230
 4.85000    5.18     3.01   5.61750
 4.90000    5.18     3.01   5.62110
 4.95000    5.18     3.02   5.62900
 5.00000    5.18     3.01   5.63450
 5.00000    5.18     3.01   5.63820
 4.95000    5.18     3.01   5.63010
 4.90000    5.18     3.02   5.62920
 4.85000    5.18     3.02   5.62470
 4.80000    5.18     3.02   5.61740
 4.75000    5.19     3.03   5.61440
 4.70000    5.19     3.03   5.60570
 4.65000    5.19     3.04   5.60180
 4.60000    5.20     3.03   5.59780
 4.55000    5.20     3.04   5.58990
 4.50000    5.20     3.04   5.58220
 4.45000    5.21     3.05   5.57800
 4.40000    5.21     3.04   5.57470
 4.35000    5.22     3.04   5.56980
 4.30000    5.22     3.04   5.56610
 4.25000    5.23     3.06   5.56250
 4.20000    5.24     3.05   5.56440
 4.15000    5.24     3.05   5.55990
 4.10000    5.25     3.04   5.55980
 4.05000    5.25     3.04   5.55310
 4.00000    5.25     3.04   5.55010
 3.95000    5.26     3.05   5.54870
 3.90000    5.27     3.04   5.54440
 3.85000    5.27     3.04   5.54100
 3.80000    5.27     3.05   5.54250
 3.75000    5.27     3.04   5.54020
 3.70000    5.27     3.04   5.54510
 3.65000    5.28     3.04   5.53530
 3.60000    5.28     3.06   5.52950
 3.55000    5.29     3.04   5.52350
 3.50000    5.29     3.04   5.51930
 3.45000    5.30     3.04   5.51670
 3.40000    5.30     3.03   5.51280
 3.35000    5.30     3.03   5.50820
 3.30000    5.30     3.02   5.50540
 3.25000    5.31     3.03   5.50150
 3.20000    5.31     3.04   5.49790
 3.15000    5.32     3.04   5.49840
 3.10000    5.33     3.03   5.49560
 3.05000    5.33     3.03   5.49290
 3.00000    5.33     3.02   5.49320
 2.95000    5.34     3.03   5.49340
 2.90000    5.34     3.02   5.47810
 2.85000    5.35     3.02   5.49260
 2.80000    5.35     3.03   5.49440
 2.75000    5.36     3.03   5.49490
 2.70000    5.36     3.03   5.49100
 2.65000    5.37     3.04   5.49280
 2.60000    5.37     3.02   5.49090
 2.55000    5.38     3.01   5.49220
 2.50000    5.38     3.02   5.47810
 2.45000    5.38     3.01   5.46210
 2.40000    5.38     3.01   5.44810
 2.35000    5.38     3.02   5.43620
 2.30000    5.39     3.01   5.44350
 2.25000    5.39     3.00   5.45120
 2.20000    5.40     3.01   5.47380
 2.15000    5.41     3.01   5.48780
 2.10000    5.41     3.01   5.50370
 2.05000    5.42     3.01   5.50880
 2.00000    5.43     3.00   5.51500
 1.95000    5.45     3.02   5.52110
 1.90000    5.45     3.00   5.52120
 1.85000    5.47     3.01   5.52470
 1.80000    5.47     3.00   5.52490
 1.75000    5.48     3.01   5.52580
 1.70000    5.48     3.01   5.52900
 1.65000    5.49     3.01   5.53150
 1.60000    5.49     3.01   5.53460
 1.55000    5.49     3.01   5.53070
 1.50000    5.49     3.00   5.53210
 1.45000    5.49     3.00   5.53140
 1.40000    5.48     3.00   5.53680
 1.35000    5.48     3.00   5.53570
 1.30000    5.48     3.01   5.53020
 1.25000    5.48     3.00   5.53040
 1.20000    5.47     3.00   5.52900
 1.15000    5.47     3.01   5.53100
 1.10000    5.47     2.99   5.53180
 1.05000    5.47     2.99   5.53020
 1.00000    5.46     2.99   5.52870
 0.95000    5.45     3.01   5.52820
 0.90000    5.45     2.99   5.53040
 0.85000    5.45     3.00   5.52530
 0.80000    5.45     3.00   5.52660
 0.75000    5.44     3.01   5.52750
 0.70000    5.43     3.00   5.52410
 0.65000    5.43     3.02   5.52690
 0.60000    5.43     3.00   5.52720
 0.55000    5.42     3.00   5.52760
 0.50000    5.42     3.01   5.53080
 0.45000    5.41     3.00   5.53240
 0.40000    5.41     3.00   5.52560
 0.35000    5.41     3.00   5.51980
 0.30000    5.41     3.01   5.51540
 0.25000    5.42     3.00   5.51120
 0.20000    5.42     2.99   5.50790
 0.15000    5.43     3.00   5.50520
 0.10000    5.44     3.01   5.50840
 0.05000    5.45     2.99   5.50650
-0.00000    5.45     2.99   5.50650
