 Field[T] Tsmpl[K] Tcntr[K] Signal
 0.00000    4.97     3.00   4.62520
 0.05000    4.95     3.00   4.62420
 0.10000    4.93     3.00   4.62500
 0.15000    4.93     3.00   4.62550
 0.20000    4.91     3.01   4.62110
 0.25000    4.90     2.99   4.62140
 0.30000    4.90     2.99   4.62240
 0.35000    4.89     2.99   4.62120
 0.40000    4.87     2.98   4.62080
 0.45000    4.87     2.99   4.61740
 0.50000    4.86     2.98   4.61850
 0.55000    4.84     2.98   4.61730
 0.60000    4.83     2.98   4.61730
 0.65000    4.82     2.98   4.61410
 0.70000    4.80     2.97   4.61050
 0.75000    4.80     2.98   4.60590
 0.80000    4.79     2.97   4.60130
 0.85000    4.78     2.96   4.59950
 0.90000    4.76     2.98   4.59530
 0.95000    4.76     2.96   4.59160
 1.00000    4.73     2.94   4.58770
 1.05000    4.71     2.94   4.58360
 1.10000    4.69     2.92   4.57800
 1.15000    4.67     2.94   4.57510
 1.20000    4.66     2.93   4.56850
 1.25000    4.64     2.93   4.56300
 1.30000    4.62     2.90   4.55770
 1.35000    4.61     2.92   4.55530
 1.40000    4.61     2.92   4.54450
 1.45000    4.60     2.93   4.53960
 1.50000    4.60     2.93   4.53130
 1.55000    4.60     2.92   4.52460
 1.60000    4.59     2.93   4.52100
 1.65000    4.60     2.93   4.52130
 1.70000    4.61     2.94   4.53150
 1.75000    4.62     2.95   4.54180
 1.80000    4.64     2.94   4.54680
 1.85000    4.65     2.95   4.54800
 1.90000    4.66     2.96   4.54530
 1.95000    4.66     2.96   4.54860
 2.00000    4.66     2.96   4.54570
 2.05000    4.67     2.97   4.54000
 2.10000    4.67     2.97   4.54010
 2.15000    4.67     2.97   4.53950
 2.20000    4.67     2.97   4.54320
 2.25000    4.66     2.97   4.54990
 2.30000    4.66     2.98   4.53640
 2.35000    4.66     2.98   4.53440
 2.40000    4.66     2.99   4.52900
 2.45000    4.66     3.00   4.52880
 2.50000    4.67     3.00   4.52570
 2.55000    4.67     2.99   4.51940
 2.60000    4.67     2.99   4.51780
 2.65000    4.67     2.99   4.51640
 2.70000    4.68     2.99   4.51450
 2.75000    4.68     3.02   4.51480
 2.80000    4.69     3.00   4.50150
 2.85000    4.70     3.00   4.50740
 2.90000    4.70     3.01   4.50640
 2.95000    4.71     3.00   4.49840
 3.00000    4.71     3.00   4.49980
 3.05000    4.72     3.00   4.49670
 3.10000    4.73     3.00   4.49090
 3.15000    4.73     3.00   4.49450
 3.20000    4.74     3.02   4.49440
 3.25000    4.75     3.00   4.49090
 3.30000    4.75     3.01   4.48960
 3.35000    4.75     3.01   4.48940
 3.40000    4.76     3.01   4.48600
 3.45000    4.76     3.01   4.48530
 3.50000    4.77     3.03   4.48390
 3.55000    4.77     3.01   4.48070
 3.60000    4.78     3.02   4.48390
 3.65000    4.78     3.03   4.48090
 3.70000    4.78     3.03   4.47630
 3.75000    4.79     3.03   4.47310
 3.80000    4.80     3.03   4.47350
 3.85000    4.81     3.03   4.47020
 3.90000    4.82     3.03   4.46770
 3.95000    4.83     3.02   4.46590
 4.00000    4.84     3.03   4.46590
 4.00000    4.84     3.03   4.46510
 3.95000    4.85     3.03   4.46710
 3.90000    4.85     3.03   4.46880
 3.85000    4.85     3.03   4.47040
 3.80000    4.85     3.03   4.47130
 3.75000    4.86     3.05   4.47410
 3.70000    4.88     3.06   4.47630
 3.65000    4.89     3.06   4.47890
 3.60000    4.90     3.08   4.48100
 3.55000    4.93     3.08   4.48340
 3.50000    4.94     3.10   4.48920
 3.45000    4.97     3.10   4.48890
 3.40000    4.99     3.12   4.49650
 3.35000    5.01     3.11   4.49590
 3.30000    5.03     3.12   4.50220
 3.25000    5.05     3.12   4.50570
 3.20000    5.08     3.11   4.50780
 3.15000    5.09     3.13   4.51170
 3.10000    5.12     3.12   4.51750
 3.05000    5.13     3.10   4.51910
 3.00000    5.14     3.11   4.52180
 2.95000    5.16     3.12   4.52500
 2.90000    5.18     3.11   4.53080
 2.85000    5.19     3.10   4.53030
 2.80000    5.20     3.09   4.53250
 2.75000    5.21     3.11   4.53340
 2.70000    5.23     3.09   4.53500
 2.65000    5.23     3.09   4.53650
 2.60000    5.24     3.07   4.53810
 2.55000    5.24     3.09   4.54090
 2.50000    5.25     3.07   4.54380
 2.45000    5.26     3.07   4.54320
 2.40000    5.26     3.08   4.54630
 2.35000    5.27     3.06   4.55080
 2.30000    5.27     3.07   4.55160
 2.25000    5.28     3.07   4.55340
 2.20000    5.29     3.06   4.55770
 2.15000    5.30     3.07   4.55950
 2.10000    5.31     3.06   4.56120
 2.05000    5.32     3.04   4.55970
 2.00000    5.32     3.05   4.56380
 1.95000    5.32     3.03   4.56550
 1.90000    5.32     3.04   4.56870
 1.85000    5.33     3.04   4.56660
 1.80000    5.34     3.04   4.56830
 1.75000    5.34     3.04   4.56380
 1.70000    5.35     3.03   4.55880
 1.65000    5.35     3.03   4.55200
 1.60000    5.36     3.03   4.54970
 1.55000    5.36     3.02   4.55190
 1.50000    5.35     3.02   4.55030
 1.45000    5.36     3.03   4.55630
 1.40000    5.36     3.01   4.56440
 1.35000    5.36     3.01   4.56590
 1.30000    5.35     3.02   4.57100
 1.25000    5.35     3.01   4.57890
 1.20000    5.35     3.01   4.58210
 1.15000    5.35     3.01   4.58440
 1.10000    5.35     3.01   4.59040
 1.05000    5.35     3.01   4.59620
 1.00000    5.35     3.01   4.59660
 0.95000    5.35     3.01   4.60410
 0.90000    5.36     3.02   4.60590
 0.85000    5.36     3.00   4.61010
 0.80000    5.36     3.01   4.61350
 0.75000    5.36     3.01   4.61680
 0.70000    5.36     3.02   4.61570
 0.65000    5.36     3.00   4.61600
 0.60000    5.35     3.00   4.61750
 0.55000    5.35     3.00   4.62200
 0.50000    5.35     3.00   4.62390
 0.45000    5.34     3.00   4.62330
 0.40000    5.32     3.01   4.62580
 0.35000    5.32     2.99   4.62540
 0.30000    5.31     3.00   4.62660
 0.25000    5.30     3.01   4.62420
 0.20000    5.28     2.99   4.62460
 0.15000    5.26     2.99   4.62490
 0.10000    5.24     2.99   4.62710
 0.05000    5.22     2.99   4.62260
-0.00000    5.21     2.99   4.62650
