 Field[T] Tsmpl[K] Tcntr[K] Signal
 7.00000    1.87     1.91   0.64460
 6.95000    1.87     1.91   0.64950
 6.90000    1.87     1.91   0.65380
 6.85000    1.87     1.91   0.65500
 6.80000    1.87     1.91   0.65580
 6.75000    1.87     1.91   0.66030
 6.70000    1.87     1.91   0.66540
 6.65000    1.87     1.91   0.66820
 6.60000    1.87     1.91   0.67010
 6.55000    1.87     1.91   0.67230
 6.50000    1.87     1.91   0.67210
 6.45000    1.87     1.91   0.67960
 6.40000    1.87     1.91   0.68140
 6.35000    1.87     1.91   0.68140
 6.30000    1.87     1.91   0.68600
 6.25000    1.87     1.91   0.68510
 6.20000    1.87     1.91   0.69010
 6.15000    1.87     1.91   0.68990
 6.10000    1.87     1.91   0.69540
 6.05000    1.87     1.91   0.69550
 6.00000    1.87     1.91   0.69640
 5.95000    1.87     1.91   0.69650
 5.90000    1.87     1.91   0.69290
 5.85000    1.87     1.91   0.69510
 5.80000    1.87     1.91   0.69300
 5.75000    1.87     1.91   0.69470
 5.70000    1.87     1.91   0.68990
 5.65000    1.87     1.91   0.69170
 5.60000    1.87     1.91   0.68230
 5.55000    1.87     1.91   0.68750
 5.50000    1.87     1.91   0.67500
 5.45000    1.87     1.90   0.67660
 5.40000    1.87     1.90   0.66680
 5.35000    1.86     1.90   0.66020
 5.30000    1.86     1.90   0.65550
 5.25000    1.86     1.90   0.64300
 5.20000    1.86     1.90   0.63530
 5.15000    1.86     1.90   0.62610
 5.10000    1.86     1.90   0.61690
 5.05000    1.86     1.90   0.60670
 5.00000    1.86     1.90   0.59300
 4.95000    1.86     1.90   0.58030
 4.90000    1.86     1.90   0.56610
 4.85000    1.86     1.90   0.55730
 4.80000    1.86     1.90   0.53540
 4.75000    1.86     1.90   0.52950
 4.70000    1.86     1.90   0.51220
 4.65000    1.86     1.90   0.54340
 4.60000    1.86     1.90   0.55430
 4.55000    1.86     1.90   0.47400
 4.50000    1.86     1.90   0.45960
 4.45000    1.86     1.90   0.44540
 4.40000    1.86     1.90   0.43490
 4.35000    1.86     1.90   0.41990
 4.30000    1.86     1.90   0.41270
 4.25000    1.86     1.90   0.39700
 4.20000    1.86     1.89   0.38630
 4.15000    1.86     1.89   0.37840
 4.10000    1.86     1.89   0.36360
 4.05000    1.86     1.89   0.36030
 4.00000    1.86     1.89   0.34440
 3.95000    1.86     1.89   0.34400
 3.90000    1.86     1.89   0.33020
 3.85000    1.86     1.89   0.33090
 3.80000    1.86     1.89   0.32250
 3.75000    1.86     1.89   0.32060
 3.70000    1.86     1.89   0.31740
 3.65000    1.86     1.89   0.31470
 3.60000    1.86     1.89   0.31440
 3.55000    1.86     1.89   0.31590
 3.50000    1.86     1.89   0.31360
 3.45000    1.86     1.89   0.31620
 3.40000    1.86     1.89   0.32140
 3.35000    1.86     1.89   0.32430
 3.30000    1.86     1.89   0.33290
 3.25000    1.85     1.89   0.33940
 3.20000    1.85     1.89   0.35240
 3.15000    1.85     1.89   0.35980
 3.10000    1.85     1.89   0.37640
 3.05000    1.85     1.89   0.38970
 3.00000    1.85     1.89   0.40710
 2.95000    1.85     1.89   0.42960
 2.90000    1.85     1.88   0.44830
 2.85000    1.85     1.88   0.47720
 2.80000    1.85     1.88   0.50660
 2.75000    1.85     1.88   0.54020
 2.70000    1.85     1.88   0.58030
 2.65000    1.85     1.88   0.62150
 2.60000    1.85     1.88   0.67090
 2.55000    1.85     1.88   0.72670
 2.50000    1.85     1.88   0.78030
 2.45000    1.85     1.88   0.84270
 2.40000    1.85     1.88   0.91410
 2.35000    1.85     1.88   0.99150
 2.30000    1.85     1.88   1.06390
 2.25000    1.85     1.88   1.14700
 2.20000    1.85     1.88   1.24010
 2.15000    1.85     1.88   1.33530
 2.10000    1.85     1.88   1.43730
 2.05000    1.85     1.88   1.53930
 2.00000    1.85     1.88   1.63770
 1.95000    1.85     1.88   1.73780
 1.90000    1.85     1.88   1.84870
 1.85000    1.85     1.88   1.99070
 1.80000    1.85     1.87   2.12180
 1.75000    1.85     1.87   2.22960
 1.70000    1.85     1.87   2.29360
 1.65000    1.85     1.87   2.37240
 1.60000    1.85     1.87   2.44210
 1.55000    1.85     1.87   2.64300
 1.50000    1.85     1.87   2.58770
 1.45000    1.85     1.87   2.61280
 1.40000    1.85     1.87   2.56720
 1.35000    1.85     1.87   2.72390
 1.30000    1.85     1.87   2.83180
 1.25000    1.85     1.87   2.92590
 1.20000    1.85     1.87   2.98930
 1.15000    1.85     1.87   3.03310
 1.10000    1.85     1.87   3.04580
 1.05000    1.85     1.87   3.05740
 1.00000    1.85     1.87   3.06730
 0.95000    1.85     1.87   3.09390
 0.90000    1.85     1.87   3.12980
 0.85000    1.85     1.87   3.14710
 0.80000    1.85     1.87   3.19210
 0.75000    1.85     1.87   3.21550
 0.70000    1.84     1.87   3.24800
 0.65000    1.84     1.87   3.27990
 0.60000    1.84     1.87   3.29770
 0.55000    1.84     1.87   3.31610
 0.50000    1.84     1.87   3.32460
 0.45000    1.84     1.87   3.33760
 0.40000    1.84     1.87   3.34420
 0.35000    1.84     1.87   3.34230
 0.30000    1.84     1.87   3.35490
 0.25000    1.84     1.87   3.36090
 0.20000    1.84     1.87   3.35280
 0.15000    1.84     1.87   3.36680
 0.10000    1.84     1.87   3.36580
 0.05000    1.84     1.87   3.36960
-0.00000    1.84     1.87   3.36740
