 Field[T] Tsmpl[K] Tcntr[K] SignalIntensity
 7.00000    1.86     1.86   0.16448
 6.95000    1.86     1.86   0.16523
 6.90000    1.86     1.86   0.16598
 6.85000    1.86     1.86   0.16648
 6.80000    1.86     1.86   0.16762
 6.75000    1.86     1.86   0.16840
 6.70000    1.86     1.86   0.16909
 6.65000    1.86     1.86   0.16978
 6.60000    1.86     1.86   0.17091
 6.55000    1.86     1.86   0.17133
 6.50000    1.86     1.86   0.17200
 6.45000    1.86     1.86   0.17269
 6.40000    1.86     1.86   0.17318
 6.35000    1.86     1.86   0.17355
 6.30000    1.86     1.86   0.17410
 6.25000    1.86     1.86   0.17485
 6.20000    1.86     1.86   0.17549
 6.15000    1.86     1.86   0.17598
 6.10000    1.86     1.86   0.17643
 6.05000    1.86     1.86   0.17656
 6.00000    1.86     1.86   0.17669
 5.95000    1.86     1.86   0.17706
 5.90000    1.86     1.86   0.17725
 5.85000    1.86     1.86   0.17754
 5.80000    1.86     1.86   0.17699
 5.75000    1.86     1.86   0.17702
 5.70000    1.86     1.86   0.17682
 5.65000    1.86     1.86   0.17566
 5.60000    1.86     1.86   0.17541
 5.55000    1.86     1.86   0.17477
 5.50000    1.86     1.86   0.17392
 5.45000    1.86     1.86   0.17301
 5.40000    1.86     1.86   0.17128
 5.35000    1.86     1.86   0.16922
 5.30000    1.86     1.86   0.16824
 5.25000    1.86     1.86   0.16600
 5.20000    1.86     1.86   0.16405
 5.15000    1.86     1.86   0.16155
 5.10000    1.86     1.86   0.15853
 5.05000    1.86     1.86   0.15586
 5.00000    1.86     1.86   0.15278
 4.95000    1.86     1.86   0.15024
 4.90000    1.86     1.86   0.12579
 4.85000    1.86     1.86   0.14371
 4.80000    1.86     1.86   0.14069
 4.75000    1.86     1.86   0.13704
 4.70000    1.86     1.86   0.13378
 4.65000    1.86     1.86   0.13072
 4.60000    1.86     1.86   0.12747
 4.55000    1.86     1.86   0.12394
 4.50000    1.86     1.86   0.12117
 4.45000    1.86     1.86   0.11770
 4.40000    1.86     1.86   0.11445
 4.35000    1.86     1.86   0.11160
 4.30000    1.86     1.86   0.10872
 4.25000    1.86     1.86   0.10630
 4.20000    1.86     1.86   0.10320
 4.15000    1.86     1.86   0.10136
 4.10000    1.86     1.86   0.09862
 4.05000    1.86     1.86   0.09654
 4.00000    1.86     1.86   0.09445
 3.95000    1.86     1.86   0.09310
 3.90000    1.86     1.86   0.09128
 3.85000    1.86     1.86   0.08989
 3.80000    1.86     1.86   0.08922
 3.75000    1.86     1.86   0.08763
 3.70000    1.86     1.86   0.08771
 3.65000    1.86     1.86   0.08694
 3.60000    1.86     1.86   0.08686
 3.55000    1.86     1.86   0.08678
 3.50000    1.86     1.86   0.08704
 3.45000    1.86     1.86   0.08802
 3.40000    1.86     1.86   0.08845
 3.35000    1.86     1.86   0.08997
 3.30000    1.86     1.86   0.09149
 3.25000    1.86     1.86   0.09371
 3.20000    1.86     1.86   0.09630
 3.15000    1.86     1.86   0.09907
 3.10000    1.86     1.86   0.10219
 3.05000    1.86     1.86   0.10659
 3.00000    1.86     1.86   0.11114
 2.95000    1.86     1.86   0.11618
 2.90000    1.86     1.86   0.12192
 2.85000    1.86     1.86   0.12901
 2.80000    1.86     1.86   0.13683
 2.75000    1.86     1.86   0.14541
 2.70000    1.86     1.86   0.15550
 2.65000    1.86     1.86   0.16632
 2.60000    1.86     1.86   0.17826
 2.55000    1.86     1.86   0.19171
 2.50000    1.86     1.86   0.20646
 2.45000    1.86     1.86   0.22182
 2.40000    1.86     1.86   0.23866
 2.35000    1.86     1.86   0.25683
 2.30000    1.86     1.86   0.27574
 2.25000    1.86     1.86   0.29661
 2.20000    1.86     1.86   0.31858
 2.15000    1.86     1.86   0.34176
 2.10000    1.86     1.86   0.36618
 2.05000    1.86     1.86   0.39136
 2.00000    1.86     1.86   0.41762
 1.95000    1.86     1.86   0.44536
 1.90000    1.86     1.86   0.47642
 1.85000    1.86     1.86   0.50739
 1.80000    1.86     1.86   0.53293
 1.75000    1.86     1.86   0.55061
 1.70000    1.86     1.86   0.56611
 1.65000    1.86     1.86   0.58472
 1.60000    1.86     1.86   0.60378
 1.55000    1.86     1.86   0.61462
 1.50000    1.86     1.86   0.62627
 1.45000    1.86     1.86   0.63942
 1.40000    1.86     1.86   0.65565
 1.35000    1.86     1.86   0.67334
 1.30000    1.86     1.86   0.69030
 1.25000    1.86     1.86   0.70522
 1.20000    1.86     1.86   0.71762
 1.15000    1.86     1.86   0.72728
 1.10000    1.86     1.86   0.73325
 1.05000    1.86     1.86   0.73891
 1.00000    1.86     1.86   0.74427
 0.95000    1.86     1.86   0.74875
 0.90000    1.86     1.86   0.75418
 0.85000    1.86     1.86   0.75821
 0.80000    1.86     1.86   0.76302
 0.75000    1.86     1.86   0.76714
 0.70000    1.86     1.86   0.77240
 0.65000    1.86     1.86   0.77835
 0.60000    1.86     1.86   0.78163
 0.55000    1.86     1.86   0.78338
 0.50000    1.86     1.86   0.78680
 0.45000    1.86     1.86   0.78773
 0.40000    1.86     1.86   0.78843
 0.35000    1.86     1.86   0.78773
 0.30000    1.86     1.86   0.78845
 0.25000    1.86     1.86   0.78910
 0.20000    1.86     1.86   0.78955
 0.15000    1.86     1.86   0.79030
 0.10000    1.86     1.86   0.78971
 0.05000    1.86     1.86   0.78955
