 Field[T] Tsmpl[K] Tcntr[K] Signal   Mirror[MM]
 0.00000    5.64     3.19   0.13788  5.5886
-0.05000    5.64     3.19   0.13774  5.5895
-0.10000    5.64     3.19   0.13767  5.5893
-0.15000    5.65     3.21   0.13775  5.5895
-0.20000    5.65     3.19   0.13752  5.5895
-0.25000    5.65     3.20   0.13759  5.5890
-0.30000    5.66     3.21   0.13739  5.5894
-0.35000    5.66     3.20   0.13766  5.5896
-0.40000    5.66     3.20   0.13734  5.5898
-0.45000    5.66     3.20   0.13728  5.5895
-0.50000    5.67     3.21   0.13697  5.5900
-0.55000    5.67     3.19   0.13677  5.5905
-0.60000    5.67     3.20   0.13663  5.5908
-0.65000    5.67     3.20   0.13658  5.5915
-0.70000    5.67     3.19   0.13641  5.5919
-0.75000    5.68     3.19   0.13601  5.5930
-0.80000    5.68     3.20   0.13589  5.5935
-0.85000    5.68     3.20   0.13560  5.5935
-0.90000    5.68     3.20   0.13541  5.5939
-0.95000    5.68     3.20   0.13498  5.5942
-1.00000    5.68     3.21   0.13457  5.5945
-1.05000    5.68     3.19   0.13426  5.5948
-1.10000    5.68     3.19   0.13409  5.5950
-1.15000    5.68     3.19   0.13386  5.5956
-1.20000    5.69     3.21   0.13346  5.5970
-1.25000    5.69     3.19   0.13313  5.5970
-1.30000    5.69     3.19   0.13283  5.5985
-1.35000    5.69     3.19   0.13182  5.5996
-1.40000    5.70     3.21   0.13121  5.6006
-1.45000    5.70     3.19   0.13041  5.6012
-1.50000    5.70     3.19   0.12970  5.6020
-1.55000    5.71     3.21   0.12906  5.6007
-1.60000    5.71     3.19   0.12837  5.6005
-1.65000    5.72     3.20   0.12800  5.6000
-1.70000    5.72     3.19   0.12713  5.6013
-1.75000    5.72     3.21   0.12698  5.6016
-1.80000    5.73     3.20   0.12673  5.6015
-1.85000    5.74     3.20   0.12658  5.6017
-1.90000    5.74     3.22   0.12644  5.6041
-1.95000    5.76     3.21   0.12573  5.6076
-2.00000    5.76     3.20   0.12417  5.6085
-2.05000    5.76     3.20   0.12324  5.6075
-2.10000    5.77     3.21   0.12265  5.6077
-2.15000    5.78     3.20   0.12202  5.6093
-2.20000    5.78     3.20   0.12111  5.6120
-2.25000    5.78     3.20   0.11993  5.6128
-2.30000    5.78     3.21   0.11882  5.6124
-2.35000    5.79     3.21   0.11799  5.6142
-2.40000    5.79     3.20   0.11649  5.6164
-2.45000    5.79     3.21   0.11486  5.6164
-2.50000    5.80     3.19   0.11317  5.6163
-2.55000    5.80     3.20   0.11152  5.6152
-2.60000    5.80     3.21   0.11023  5.6137
-2.65000    5.80     3.20   0.10908  5.6121
-2.70000    5.80     3.20   0.10792  5.6111
-2.75000    5.80     3.20   0.10693  5.6100
-2.80000    5.80     3.20   0.10566  5.6090
-2.85000    5.81     3.19   0.10452  5.6077
-2.90000    5.81     3.21   0.10314  5.6059
-2.95000    5.81     3.21   0.10173  5.6042
-3.00000    5.81     3.20   0.10032  5.6022
-3.05000    5.81     3.21   0.09919  5.5995
-3.10000    5.80     3.20   0.09764  5.5969
-3.15000    5.81     3.20   0.09631  5.5946
-3.20000    5.81     3.19   0.09515  5.5916
-3.25000    5.81     3.21   0.09391  5.5883
-3.30000    5.81     3.21   0.09255  5.5844
-3.35000    5.82     3.20   0.09147  5.5798
-3.40000    5.82     3.20   0.09026  5.5752
-3.45000    5.83     3.21   0.08926  5.5704
-3.50000    5.84     3.22   0.08797  5.5655
-3.55000    5.84     3.20   0.08711  5.5597
-3.60000    5.85     3.20   0.08598  5.5540
-3.65000    5.85     3.20   0.08521  5.5483
-3.70000    5.85     3.21   0.08442  5.5418
-3.75000    5.85     3.20   0.08369  5.5355
-3.80000    5.86     3.20   0.08305  5.5292
-3.85000    5.86     3.21   0.08256  5.5222
-3.90000    5.87     3.20   0.08214  5.5157
-3.95000    5.88     3.20   0.08170  5.5086
-4.00000    5.89     3.21   0.08127  5.5022
-4.05000    5.90     3.21   0.08118  5.4960
-4.10000    5.91     3.20   0.08086  5.4888
-4.15000    5.91     3.21   0.08083  5.4825
-4.20000    5.93     3.21   0.08062  5.4762
-4.25000    5.93     3.21   0.08081  5.4695
-4.30000    5.94     3.20   0.08069  5.4632
-4.35000    5.95     3.20   0.08082  5.4572
-4.40000    5.96     3.20   0.08123  5.4509
-4.45000    5.97     3.20   0.08134  5.4445
-4.50000    5.98     3.21   0.08175  5.4390
-4.55000    6.00     3.21   0.08211  5.4330
-4.60000    6.01     3.21   0.08262  5.4281
-4.65000    6.03     3.21   0.08303  5.4229
-4.70000    6.04     3.22   0.08364  5.4181
-4.75000    6.06     3.20   0.08423  5.4130
-4.80000    6.07     3.21   0.08497  5.4096
-4.85000    6.09     3.22   0.08550  5.4055
-4.90000    6.10     3.21   0.08626  5.4013
-4.95000    6.12     3.20   0.08702  5.3967
-5.00000    6.14     3.21   0.08788  5.3934
-5.05000    6.15     3.22   0.08889  5.3901
-5.10000    6.17     3.20   0.08964  5.3870
-5.15000    6.19     3.21   0.09053  5.3837
-5.20000    6.20     3.21   0.09139  5.3809
-5.25000    6.22     3.21   0.09242  5.3782
-5.30000    6.23     3.20   0.09325  5.3758
-5.35000    6.24     3.21   0.09437  5.3739
-5.40000    6.25     3.21   0.09521  5.3714
-5.45000    6.26     3.20   0.09631  5.3692
-5.50000    6.26     3.20   0.09711  5.3672
-5.55000    6.27     3.21   0.09783  5.3655
-5.60000    6.27     3.20   0.09908  5.3637
-5.65000    6.27     3.20   0.09998  5.3628
-5.70000    6.27     3.22   0.10114  5.3620
-5.75000    6.26     3.20   0.10202  5.3603
-5.80000    6.25     3.21   0.10311  5.3600
-5.85000    6.25     3.21   0.10397  5.3588
-5.90000    6.26     3.21   0.10504  5.3590
-5.95000    6.26     3.20   0.10591  5.3586
-6.00000    6.27     3.20   0.10710  5.3582
-6.05000    6.27     3.21   0.10799  5.3585
-6.10000    6.28     3.20   0.10898  5.3580
-6.15000    6.29     3.21   0.10990  5.3585
-6.20000    6.29     3.21   0.11079  5.3585
-6.25000    6.30     3.20   0.11143  5.3586
-6.30000    6.30     3.20   0.11242  5.3587
-6.35000    6.30     3.21   0.11312  5.3592
-6.40000    6.30     3.21   0.11395  5.3604
-6.45000    6.30     3.20   0.11440  5.3610
-6.50000    6.31     3.22   0.11529  5.3626
-6.55000    6.31     3.20   0.11591  5.3628
-6.60000    6.31     3.20   0.11659  5.3637
-6.65000    6.32     3.21   0.11734  5.3650
-6.70000    6.33     3.20   0.11816  5.3660
-6.75000    6.34     3.20   0.11846  5.3670
-6.80000    6.35     3.20   0.11892  5.3675
-6.85000    6.36     3.21   0.11945  5.3685
-6.90000    6.36     3.20   0.11967  5.3690
-6.95000    6.37     3.20   0.12013  5.3700
-7.00000    6.37     3.21   0.12024  5.3710
-7.00000    6.37     3.21   0.12036  5.3705
-6.95000    6.37     3.20   0.12006  5.3690
-6.90000    6.37     3.20   0.11974  5.3680
-6.85000    6.37     3.21   0.11926  5.3665
-6.80000    6.37     3.20   0.11850  5.3659
-6.75000    6.37     3.19   0.11827  5.3641
-6.70000    6.36     3.20   0.11766  5.3627
-6.65000    6.36     3.20   0.11686  5.3616
-6.60000    6.35     3.19   0.11614  5.3605
-6.55000    6.34     3.21   0.11551  5.3595
-6.50000    6.34     3.19   0.11482  5.3581
-6.45000    6.33     3.19   0.11394  5.3571
-6.40000    6.33     3.20   0.11336  5.3567
-6.35000    6.32     3.21   0.11258  5.3560
-6.30000    6.32     3.20   0.11178  5.3560
-6.25000    6.32     3.19   0.11078  5.3554
-6.20000    6.31     3.21   0.11014  5.3555
-6.15000    6.31     3.20   0.10922  5.3555
-6.10000    6.31     3.20   0.10828  5.3545
-6.05000    6.31     3.20   0.10710  5.3545
-6.00000    6.31     3.21   0.10631  5.3555
-5.95000    6.31     3.19   0.10537  5.3556
-5.90000    6.31     3.20   0.10461  5.3560
-5.85000    6.31     3.20   0.10357  5.3566
-5.80000    6.31     3.21   0.10269  5.3575
-5.75000    6.31     3.20   0.10176  5.3580
-5.70000    6.31     3.20   0.10060  5.3595
-5.65000    6.31     3.20   0.09978  5.3602
-5.60000    6.31     3.20   0.09889  5.3620
-5.55000    6.31     3.20   0.09791  5.3645
-5.50000    6.31     3.21   0.09681  5.3665
-5.45000    6.31     3.21   0.09620  5.3690
-5.40000    6.32     3.20   0.09529  5.3708
-5.35000    6.32     3.21   0.09442  5.3732
-5.30000    6.32     3.21   0.09337  5.3756
-5.25000    6.33     3.20   0.09245  5.3780
-5.20000    6.33     3.20   0.09167  5.3811
-5.15000    6.33     3.21   0.09092  5.3849
-5.10000    6.34     3.20   0.09019  5.3879
-5.05000    6.34     3.20   0.08935  5.3915
-5.00000    6.34     3.21   0.08867  5.3950
-4.95000    6.35     3.20   0.08804  5.3991
-4.90000    6.35     3.20   0.08742  5.4035
-4.85000    6.35     3.21   0.08695  5.4079
-4.80000    6.36     3.21   0.08604  5.4124
-4.75000    6.36     3.20   0.08568  5.4172
-4.70000    6.37     3.20   0.08516  5.4223
-4.65000    6.38     3.21   0.08470  5.4278
-4.60000    6.38     3.21   0.08437  5.4324
-4.55000    6.39     3.19   0.08407  5.4384
-4.50000    6.39     3.20   0.08396  5.4438
-4.45000    6.41     3.21   0.08358  5.4491
-4.40000    6.41     3.20   0.08347  5.4551
-4.35000    6.42     3.20   0.08334  5.4611
-4.30000    6.42     3.21   0.08328  5.4668
-4.25000    6.43     3.21   0.08334  5.4728
-4.20000    6.44     3.20   0.08336  5.4792
-4.15000    6.44     3.21   0.08341  5.4851
-4.10000    6.45     3.21   0.08352  5.4916
-4.05000    6.46     3.19   0.08375  5.4976
-4.00000    6.46     3.22   0.08413  5.5036
-3.95000    6.47     3.20   0.08433  5.5102
-3.90000    6.48     3.20   0.08493  5.5166
-3.85000    6.49     3.20   0.08545  5.5227
-3.80000    6.49     3.21   0.08608  5.5289
-3.75000    6.50     3.20   0.08674  5.5346
-3.70000    6.50     3.20   0.08742  5.5409
-3.65000    6.51     3.21   0.08832  5.5465
-3.60000    6.51     3.20   0.08914  5.5522
-3.55000    6.52     3.20   0.09002  5.5576
-3.50000    6.53     3.21   0.09110  5.5625
-3.45000    6.53     3.19   0.09214  5.5675
-3.40000    6.53     3.20   0.09313  5.5722
-3.35000    6.53     3.21   0.09454  5.5765
-3.30000    6.54     3.21   0.09564  5.5805
-3.25000    6.54     3.21   0.09699  5.5837
-3.20000    6.54     3.21   0.09824  5.5871
-3.15000    6.54     3.20   0.09962  5.5897
-3.10000    6.55     3.20   0.10078  5.5926
-3.05000    6.55     3.20   0.10217  5.5950
-3.00000    6.55     3.21   0.10341  5.5969
-2.95000    6.55     3.20   0.10468  5.5986
-2.90000    6.55     3.20   0.10584  5.6004
-2.85000    6.55     3.20   0.10728  5.6013
-2.80000    6.55     3.20   0.10850  5.6025
-2.75000    6.55     3.19   0.10944  5.6043
-2.70000    6.55     3.21   0.11076  5.6050
-2.65000    6.55     3.20   0.11182  5.6066
-2.60000    6.55     3.19   0.11313  5.6080
-2.55000    6.54     3.21   0.11478  5.6085
-2.50000    6.54     3.19   0.11619  5.6090
-2.45000    6.53     3.19   0.11760  5.6090
-2.40000    6.53     3.20   0.11910  5.6070
-2.35000    6.53     3.20   0.12012  5.6056
-2.30000    6.52     3.19   0.12117  5.6050
-2.25000    6.52     3.20   0.12235  5.6043
-2.20000    6.51     3.19   0.12317  5.6020
-2.15000    6.51     3.19   0.12387  5.6005
-2.10000    6.50     3.19   0.12431  5.6010
-2.05000    6.50     3.20   0.12545  5.6018
-2.00000    6.49     3.19   0.12677  5.6000
-1.95000    6.48     3.19   0.12743  5.5965
-1.90000    6.47     3.21   0.12755  5.5950
-1.85000    6.47     3.20   0.12746  5.5950
-1.80000    6.46     3.19   0.12813  5.5950
-1.75000    6.45     3.19   0.12877  5.5945
-1.70000    6.45     3.20   0.12897  5.5944
-1.65000    6.44     3.19   0.12933  5.5940
-1.60000    6.43     3.19   0.12969  5.5950
-1.55000    6.42     3.20   0.13055  5.5955
-1.50000    6.42     3.19   0.13143  5.5955
-1.45000    6.41     3.19   0.13212  5.5955
-1.40000    6.40     3.20   0.13257  5.5940
-1.35000    6.39     3.18   0.13322  5.5930
-1.30000    6.38     3.19   0.13362  5.5921
-1.25000    6.37     3.19   0.13385  5.5915
-1.20000    6.36     3.19   0.13405  5.5910
-1.15000    6.36     3.18   0.13435  5.5902
-1.10000    6.36     3.18   0.13477  5.5904
-1.05000    6.35     3.19   0.13486  5.5901
-1.00000    6.34     3.18   0.13517  5.5900
-0.95000    6.34     3.18   0.13542  5.5900
-0.90000    6.33     3.19   0.13569  5.5895
-0.85000    6.33     3.18   0.13610  5.5890
-0.80000    6.33     3.17   0.13642  5.5885
-0.75000    6.32     3.18   0.13635  5.5880
-0.70000    6.30     3.17   0.13660  5.5875
-0.65000    6.29     3.16   0.13677  5.5878
-0.60000    6.27     3.15   0.13674  5.5870
-0.55000    6.24     3.15   0.13685  5.5875
-0.50000    6.21     3.13   0.13669  5.5870
-0.45000    6.17     3.11   0.13714  5.5870
-0.40000    6.13     3.12   0.13701  5.5865
-0.35000    6.08     3.10   0.13718  5.5870
-0.30000    6.02     3.08   0.13715  5.5870
-0.25000    5.97     3.09   0.13719  5.5865
-0.20000    5.91     3.07   0.13728  5.5870
-0.15000    5.84     3.07   0.13713  5.5870
-0.10000    5.77     3.06   0.13728  5.5870
-0.05000    5.72     3.04   0.13710  5.5865
 0.00000    5.66     3.06   0.13719  5.5867
 0.05000    5.62     3.04   0.13695  5.5868
 0.10000    5.58     3.03   0.13685  5.5867
 0.15000    5.53     3.05   0.13692  5.5865
 0.20000    5.50     3.03   0.13701  5.5870
 0.25000    5.47     3.04   0.13678  5.5870
 0.30000    5.44     3.05   0.13668  5.5870
 0.35000    5.40     3.04   0.13640  5.5872
 0.40000    5.38     3.04   0.13644  5.5878
 0.45000    5.35     3.04   0.13624  5.5880
 0.50000    5.30     3.03   0.13598  5.5882
 0.55000    5.26     3.04   0.13592  5.5890
 0.60000    5.21     3.02   0.13577  5.5890
 0.65000    5.16     3.03   0.13560  5.5900
 0.70000    5.12     3.03   0.13528  5.5905
 0.75000    5.08     3.04   0.13491  5.5912
 0.80000    5.05     3.04   0.13449  5.5920
 0.85000    5.03     3.05   0.13420  5.5925
 0.90000    5.02     3.09   0.13361  5.5935
 0.95000    5.02     3.08   0.13342  5.5935
 1.00000    5.01     3.08   0.13286  5.5940
 1.05000    5.01     3.10   0.13262  5.5950
 1.10000    5.01     3.12   0.13235  5.5954
 1.15000    5.01     3.11   0.13209  5.5966
 1.20000    5.01     3.12   0.13174  5.5980
 1.25000    5.01     3.12   0.13112  5.5995
 1.30000    5.02     3.13   0.13010  5.6009
 1.35000    5.02     3.13   0.12940  5.6020
 1.40000    5.02     3.15   0.12831  5.6025
 1.45000    5.03     3.14   0.12752  5.6029
 1.50000    5.03     3.15   0.12663  5.6020
 1.55000    5.04     3.16   0.12598  5.6015
 1.60000    5.04     3.16   0.12561  5.6007
 1.65000    5.05     3.16   0.12511  5.6010
 1.70000    5.05     3.17   0.12472  5.6005
 1.75000    5.06     3.18   0.12431  5.6005
 1.80000    5.06     3.19   0.12448  5.6015
 1.85000    5.06     3.18   0.12411  5.6050
 1.90000    5.06     3.18   0.12288  5.6087
 1.95000    5.05     3.18   0.12115  5.6090
 2.00000    5.05     3.18   0.12041  5.6080
 2.05000    5.05     3.19   0.11988  5.6075
 2.10000    5.05     3.19   0.11922  5.6092
 2.15000    5.05     3.21   0.11832  5.6115
 2.20000    5.06     3.18   0.11716  5.6128
 2.25000    5.06     3.19   0.11635  5.6135
 2.30000    5.06     3.19   0.11500  5.6159
 2.35000    5.07     3.19   0.11353  5.6163
 2.40000    5.08     3.19   0.11211  5.6165
 2.45000    5.08     3.19   0.11079  5.6172
 2.50000    5.09     3.20   0.10930  5.6170
 2.55000    5.10     3.20   0.10791  5.6155
 2.60000    5.11     3.19   0.10668  5.6140
 2.65000    5.11     3.19   0.10548  5.6137
 2.70000    5.11     3.20   0.10421  5.6128
 2.75000    5.11     3.20   0.10292  5.6117
 2.80000    5.12     3.20   0.10153  5.6110
 2.85000    5.13     3.20   0.10016  5.6090
 2.90000    5.14     3.20   0.09881  5.6076
 2.95000    5.15     3.22   0.09753  5.6056
 3.00000    5.16     3.20   0.09620  5.6036
 3.05000    5.16     3.20   0.09491  5.6016
 3.10000    5.17     3.20   0.09349  5.5990
 3.15000    5.17     3.20   0.09218  5.5961
 3.20000    5.18     3.21   0.09080  5.5927
 3.25000    5.19     3.20   0.08946  5.5891
 3.30000    5.21     3.21   0.08834  5.5856
 3.35000    5.22     3.20   0.08689  5.5811
 3.40000    5.23     3.20   0.08577  5.5771
 3.45000    5.25     3.21   0.08473  5.5724
 3.50000    5.27     3.21   0.08358  5.5664
 3.55000    5.28     3.21   0.08249  5.5611
 3.60000    5.30     3.22   0.08150  5.5551
 3.65000    5.31     3.21   0.08076  5.5490
 3.70000    5.32     3.21   0.07977  5.5427
 3.75000    5.32     3.22   0.07900  5.5365
 3.80000    5.33     3.21   0.07812  5.5298
 3.85000    5.33     3.21   0.07754  5.5229
 3.90000    5.33     3.21   0.07696  5.5156
 3.95000    5.33     3.21   0.07641  5.5089
 4.00000    5.33     3.22   0.07600  5.5020
 4.05000    5.34     3.21   0.07554  5.4949
 4.10000    5.34     3.21   0.07550  5.4878
 4.15000    5.34     3.21   0.07517  5.4805
 4.20000    5.34     3.21   0.07499  5.4733
 4.25000    5.33     3.21   0.07493  5.4666
 4.30000    5.33     3.21   0.07484  5.4600
 4.35000    5.33     3.21   0.07468  5.4535
 4.40000    5.32     3.22   0.07486  5.4468
 4.45000    5.33     3.21   0.07485  5.4402
 4.50000    5.33     3.22   0.07510  5.4327
 4.55000    5.34     3.23   0.07563  5.4273
 4.60000    5.34     3.22   0.07576  5.4207
 4.65000    5.35     3.22   0.07601  5.4147
 4.70000    5.35     3.21   0.07636  5.4090
 4.75000    5.35     3.22   0.07670  5.4027
 4.80000    5.35     3.22   0.07725  5.3976
 4.85000    5.36     3.23   0.07785  5.3926
 4.90000    5.37     3.22   0.07847  5.3874
 4.95000    5.37     3.22   0.07902  5.3828
 5.00000    5.38     3.22   0.07977  5.3784
 5.05000    5.39     3.23   0.08053  5.3743
 5.10000    5.40     3.23   0.08125  5.3703
 5.15000    5.42     3.23   0.08207  5.3666
 5.20000    5.43     3.25   0.08286  5.3633
 5.25000    5.45     3.23   0.08380  5.3594
 5.30000    5.47     3.23   0.08471  5.3570
 5.35000    5.48     3.25   0.08563  5.3546
 5.40000    5.50     3.25   0.08658  5.3519
 5.45000    5.51     3.25   0.08747  5.3505
 5.50000    5.53     3.25   0.08830  5.3477
 5.55000    5.55     3.26   0.08945  5.3464
 5.60000    5.57     3.26   0.09032  5.3451
 5.65000    5.58     3.25   0.09134  5.3436
 5.70000    5.60     3.26   0.09242  5.3425
 5.75000    5.62     3.25   0.09353  5.3418
 5.80000    5.64     3.26   0.09461  5.3414
 5.85000    5.66     3.25   0.09539  5.3413
 5.90000    5.68     3.25   0.09648  5.3405
 5.95000    5.70     3.25   0.09757  5.3404
 6.00000    5.71     3.26   0.09839  5.3403
 6.05000    5.72     3.25   0.09953  5.3402
 6.10000    5.74     3.25   0.10033  5.3407
 6.15000    5.75     3.26   0.10133  5.3414
 6.20000    5.76     3.25   0.10216  5.3417
 6.25000    5.78     3.24   0.10309  5.3422
 6.30000    5.79     3.25   0.10385  5.3425
 6.35000    5.81     3.25   0.10484  5.3440
 6.40000    5.83     3.25   0.10548  5.3445
 6.45000    5.84     3.24   0.10612  5.3458
 6.50000    5.85     3.24   0.10700  5.3468
 6.55000    5.87     3.25   0.10761  5.3480
 6.60000    5.88     3.25   0.10828  5.3495
 6.65000    5.89     3.26   0.10897  5.3506
 6.70000    5.90     3.24   0.10957  5.3515
 6.75000    5.91     3.25   0.11002  5.3526
 6.80000    5.92     3.25   0.11074  5.3543
 6.85000    5.93     3.24   0.11102  5.3551
 6.90000    5.95     3.24   0.11150  5.3560
 6.95000    5.96     3.24   0.11185  5.3575
 7.00000    5.97     3.25   0.11238  5.3586
 7.00000    5.98     3.24   0.11249  5.3587
 6.95000    5.98     3.24   0.11198  5.3575
 6.90000    5.99     3.23   0.11164  5.3570
 6.85000    6.00     3.24   0.11120  5.3560
 6.80000    6.01     3.24   0.11086  5.3553
 6.75000    6.01     3.25   0.11029  5.3548
 6.70000    6.01     3.24   0.10999  5.3545
 6.65000    6.02     3.21   0.10941  5.3540
 6.60000    6.03     3.25   0.10890  5.3535
 6.55000    6.05     3.25   0.10847  5.3532
 6.50000    6.06     3.23   0.10770  5.3531
 6.45000    6.07     3.23   0.10716  5.3520
 6.40000    6.08     3.22   0.10637  5.3515
 6.35000    6.10     3.22   0.10578  5.3510
 6.30000    6.10     3.22   0.10504  5.3507
 6.25000    6.10     3.22   0.10417  5.3498
 6.20000    6.10     3.22   0.10341  5.3495
 6.15000    6.10     3.23   0.10271  5.3495
 6.10000    6.09     3.22   0.10169  5.3491
 6.05000    6.09     3.22   0.10083  5.3497
 6.00000    6.09     3.23   0.09995  5.3500
 5.95000    6.10     3.23   0.09914  5.3507
 5.90000    6.10     3.24   0.09851  5.3515
 5.85000    6.11     3.23   0.09777  5.3530
 5.80000    6.12     3.24   0.09676  5.3534
 5.75000    6.13     3.23   0.09597  5.3550
 5.70000    6.14     3.23   0.09514  5.3563
 5.65000    6.14     3.24   0.09405  5.3576
 5.60000    6.15     3.23   0.09306  5.3593
 5.55000    6.15     3.21   0.09244  5.3604
 5.50000    6.16     3.21   0.09153  5.3624
 5.45000    6.16     3.22   0.09051  5.3644
 5.40000    6.16     3.21   0.08977  5.3666
 5.35000    6.16     3.22   0.08891  5.3695
 5.30000    6.16     3.21   0.08804  5.3721
 5.25000    6.17     3.21   0.08746  5.3747
 5.20000    6.17     3.21   0.08649  5.3778
 5.15000    6.17     3.21   0.08573  5.3812
 5.10000    6.17     3.20   0.08496  5.3842
 5.05000    6.18     3.21   0.08434  5.3884
 5.00000    6.18     3.20   0.08394  5.3923
 4.95000    6.19     3.21   0.08294  5.3963
 4.90000    6.19     3.21   0.08236  5.4004
 4.85000    6.20     3.21   0.08189  5.4052
 4.80000    6.20     3.20   0.08146  5.4104
 4.75000    6.20     3.21   0.08106  5.4149
 4.70000    6.21     3.21   0.08061  5.4201
 4.65000    6.22     3.21   0.08019  5.4247
 4.60000    6.22     3.20   0.07995  5.4307
 4.55000    6.22     3.20   0.07974  5.4360
 4.50000    6.23     3.20   0.07954  5.4419
 4.45000    6.23     3.21   0.07907  5.4478
 4.40000    6.23     3.20   0.07902  5.4538
 4.35000    6.24     3.20   0.07880  5.4598
 4.30000    6.24     3.20   0.07894  5.4657
 4.25000    6.24     3.20   0.07903  5.4719
 4.20000    6.24     3.21   0.07900  5.4779
 4.15000    6.24     3.20   0.07915  5.4847
 4.10000    6.25     3.20   0.07933  5.4911
 4.05000    6.25     3.20   0.07947  5.4974
 4.00000    6.25     3.20   0.07989  5.5040
 3.95000    6.25     3.20   0.08034  5.5107
 3.90000    6.26     3.20   0.08072  5.5168
 3.85000    6.26     3.21   0.08130  5.5234
 3.80000    6.26     3.20   0.08182  5.5300
 3.75000    6.26     3.21   0.08251  5.5366
 3.70000    6.27     3.19   0.08344  5.5423
 3.65000    6.27     3.21   0.08429  5.5485
 3.60000    6.27     3.20   0.08509  5.5542
 3.55000    6.28     3.20   0.08599  5.5596
 3.50000    6.28     3.20   0.08708  5.5650
 3.45000    6.28     3.19   0.08822  5.5700
 3.40000    6.29     3.21   0.08941  5.5745
 3.35000    6.29     3.20   0.09055  5.5790
 3.30000    6.29     3.20   0.09193  5.5829
 3.25000    6.29     3.21   0.09331  5.5861
 3.20000    6.29     3.20   0.09458  5.5894
 3.15000    6.30     3.21   0.09597  5.5925
 3.10000    6.30     3.21   0.09729  5.5950
 3.05000    6.30     3.20   0.09858  5.5970
 3.00000    6.30     3.20   0.09986  5.5995
 2.95000    6.30     3.20   0.10132  5.6010
 2.90000    6.30     3.20   0.10248  5.6028
 2.85000    6.30     3.20   0.10378  5.6038
 2.80000    6.30     3.20   0.10497  5.6048
 2.75000    6.30     3.20   0.10623  5.6059
 2.70000    6.29     3.19   0.10755  5.6070
 2.65000    6.29     3.19   0.10873  5.6075
 2.60000    6.29     3.19   0.10983  5.6088
 2.55000    6.28     3.20   0.11141  5.6098
 2.50000    6.27     3.20   0.11269  5.6095
 2.45000    6.26     3.20   0.11418  5.6093
 2.40000    6.26     3.20   0.11539  5.6089
 2.35000    6.25     3.19   0.11671  5.6074
 2.30000    6.25     3.20   0.11791  5.6063
 2.25000    6.24     3.20   0.11886  5.6051
 2.20000    6.24     3.20   0.11994  5.6032
 2.15000    6.24     3.20   0.12027  5.6020
 2.10000    6.24     3.20   0.12100  5.6025
 2.05000    6.23     3.20   0.12202  5.6028
 2.00000    6.23     3.19   0.12337  5.6020
 1.95000    6.22     3.20   0.12454  5.5988
 1.90000    6.22     3.19   0.12470  5.5960
 1.85000    6.21     3.20   0.12457  5.5955
 1.80000    6.20     3.19   0.12488  5.5957
 1.75000    6.18     3.20   0.12531  5.5955
 1.70000    6.18     3.20   0.12569  5.5955
 1.65000    6.17     3.19   0.12624  5.5960
 1.60000    6.17     3.19   0.12677  5.5970
 1.55000    6.16     3.19   0.12758  5.5970
 1.50000    6.15     3.20   0.12843  5.5975
 1.45000    6.14     3.20   0.12940  5.5969
 1.40000    6.12     3.19   0.13002  5.5960
 1.35000    6.10     3.18   0.13070  5.5945
 1.30000    6.08     3.19   0.13125  5.5935
 1.25000    6.06     3.18   0.13168  5.5925
 1.20000    6.03     3.18   0.13202  5.5917
 1.15000    6.01     3.18   0.13232  5.5910
 1.10000    5.99     3.18   0.13261  5.5900
 1.05000    5.97     3.19   0.13301  5.5905
 1.00000    5.95     3.18   0.13318  5.5905
 0.95000    5.93     3.17   0.13352  5.5902
 0.90000    5.90     3.18   0.13391  5.5897
 0.85000    5.88     3.18   0.13417  5.5896
 0.80000    5.85     3.18   0.13442  5.5890
 0.75000    5.82     3.17   0.13477  5.5883
 0.70000    5.78     3.18   0.13488  5.5881
 0.65000    5.75     3.18   0.13512  5.5880
 0.60000    5.73     3.16   0.13523  5.5880
 0.55000    5.70     3.17   0.13535  5.5875
 0.50000    5.68     3.16   0.13545  5.5870
 0.45000    5.66     3.15   0.13554  5.5870
 0.40000    5.64     3.15   0.13556  5.5865
 0.35000    5.63     3.14   0.13583  5.5865
 0.30000    5.61     3.13   0.13569  5.5865
 0.25000    5.59     3.12   0.13583  5.5865
 0.20000    5.57     3.12   0.13592  5.5862
 0.15000    5.55     3.11   0.13613  5.5861
 0.10000    5.53     3.10   0.13617  5.5865
 0.05000    5.50     3.10   0.13609  5.5865
-0.00000    5.47     3.10   0.13602  5.5865
