 Field[T] Tsmpl[K] Tcntr[K] Signal
 0.00000    4.97     3.20   2.81770
 0.05000    4.97     3.20   2.82590
 0.10000    4.97     3.20   2.82890
 0.15000    4.96     3.21   2.82800
 0.20000    4.97     3.20   2.82710
 0.25000    4.96     3.20   2.82250
 0.30000    4.96     3.20   2.82460
 0.35000    4.96     3.21   2.83320
 0.40000    4.96     3.19   2.82700
 0.45000    4.96     3.20   2.83730
 0.50000    4.96     3.20   2.83390
 0.55000    4.96     3.19   2.83570
 0.60000    4.95     3.19   2.83680
 0.65000    4.95     3.19   2.83460
 0.70000    4.95     3.21   2.83270
 0.75000    4.95     3.19   2.82560
 0.80000    4.94     3.19   2.81630
 0.85000    4.93     3.20   2.79750
 0.90000    4.93     3.19   2.78440
 0.95000    4.92     3.19   2.77000
 1.00000    4.91     3.19   2.76470
 1.05000    4.91     3.21   2.76950
 1.10000    4.90     3.19   2.77830
 1.15000    4.90     3.19   2.79160
 1.20000    4.89     3.20   2.80590
 1.25000    4.89     3.19   2.82200
 1.30000    4.89     3.19   2.82770
 1.35000    4.89     3.21   2.84170
 1.40000    4.89     3.19   2.84770
 1.45000    4.89     3.20   2.85500
 1.50000    4.89     3.20   2.84860
 1.55000    4.89     3.21   2.83400
 1.60000    4.89     3.19   2.81350
 1.65000    4.89     3.19   2.78310
 1.70000    4.89     3.20   2.74910
 1.75000    4.90     3.19   2.70290
 1.80000    4.90     3.21   2.65610
 1.85000    4.92     3.19   2.60510
 1.90000    4.92     3.20   2.56230
 1.95000    4.93     3.20   2.53330
 2.00000    4.94     3.20   2.51520
 2.05000    4.94     3.20   2.49420
 2.10000    4.95     3.21   2.46630
 2.15000    4.96     3.19   2.42060
 2.20000    4.96     3.20   2.36190
 2.25000    4.96     3.20   2.33660
 2.30000    4.97     3.20   2.33980
 2.35000    4.97     3.21   2.33630
 2.40000    4.98     3.20   2.30730
 2.45000    4.98     3.20   2.28270
 2.50000    4.98     3.20   2.26370
 2.55000    4.99     3.20   2.21130
 2.60000    4.99     3.21   2.16420
 2.65000    5.00     3.22   2.12990
 2.70000    5.01     3.19   2.09280
 2.75000    5.01     3.20   2.02930
 2.80000    5.02     3.19   1.99900
 2.85000    5.03     3.20   2.00060
 2.90000    5.04     3.20   1.99550
 2.95000    5.05     3.21   1.94660
 3.00000    5.06     3.20   1.88710
 3.05000    5.07     3.20   1.84270
 3.10000    5.08     3.20   1.81350
 3.15000    5.08     3.20   1.79850
 3.20000    5.09     3.21   1.78710
 3.25000    5.10     3.19   1.77040
 3.30000    5.10     3.21   1.75530
 3.35000    5.11     3.21   1.73440
 3.40000    5.12     3.20   1.71230
 3.45000    5.14     3.20   1.68510
 3.50000    5.15     3.20   1.66170
 3.55000    5.16     3.21   1.63730
 3.60000    5.19     3.20   1.61270
 3.65000    5.20     3.21   1.58810
 3.70000    5.22     3.21   1.56490
 3.75000    5.24     3.21   1.53880
 3.80000    5.25     3.22   1.51190
 3.85000    5.26     3.21   1.48390
 3.90000    5.27     3.21   1.45510
 3.95000    5.28     3.20   1.42980
 4.00000    5.29     3.21   1.40220
 4.05000    5.30     3.22   1.37490
 4.10000    5.31     3.20   1.34640
 4.15000    5.32     3.21   1.31860
 4.20000    5.32     3.20   1.28800
 4.25000    5.32     3.21   1.25900
 4.30000    5.33     3.19   1.22930
 4.35000    5.33     3.20   1.20490
 4.40000    5.33     3.21   1.17770
 4.45000    5.33     3.20   1.15030
 4.50000    5.33     3.21   1.12220
 4.55000    5.33     3.20   1.09890
 4.60000    5.34     3.22   1.07610
 4.65000    5.34     3.19   1.05160
 4.70000    5.34     3.20   1.03280
 4.75000    5.34     3.20   1.01080
 4.80000    5.35     3.21   0.99290
 4.85000    5.35     3.21   0.97530
 4.90000    5.36     3.21   0.96100
 4.95000    5.36     3.20   0.94570
 5.00000    5.36     3.20   0.92850
 5.05000    5.36     3.19   0.91960
 5.10000    5.37     3.22   0.90700
 5.15000    5.37     3.20   0.89890
 5.20000    5.38     3.21   0.88980
 5.25000    5.38     3.20   0.87930
 5.30000    5.38     3.20   0.87430
 5.35000    5.38     3.21   0.86980
 5.40000    5.39     3.20   0.86070
 5.45000    5.39     3.21   0.86010
 5.50000    5.39     3.20   0.85140
 5.55000    5.39     3.23   0.85290
 5.60000    5.40     3.20   0.85010
 5.65000    5.40     3.21   0.84880
 5.70000    5.41     3.20   0.84620
 5.75000    5.41     3.20   0.84890
 5.80000    5.41     3.20   0.84900
 5.85000    5.42     3.20   0.85070
 5.90000    5.42     3.20   0.85530
 5.95000    5.43     3.20   0.85920
 6.00000    5.44     3.21   0.86390
 6.05000    5.45     3.20   0.87120
 6.10000    5.46     3.19   0.87510
 6.15000    5.46     3.20   0.88020
 6.20000    5.47     3.21   0.88930
 6.25000    5.47     3.20   0.89590
 6.30000    5.48     3.20   0.90300
 6.35000    5.49     3.20   0.91260
 6.40000    5.49     3.21   0.92180
 6.45000    5.50     3.20   0.93320
 6.50000    5.50     3.19   0.94050
 6.55000    5.50     3.21   0.95170
 6.60000    5.51     3.20   0.96690
 6.65000    5.51     3.21   0.97710
 6.70000    5.51     3.21   0.98690
 6.75000    5.51     3.20   1.00040
 6.80000    5.51     3.20   1.01320
 6.85000    5.51     3.20   1.02940
 6.90000    5.51     3.20   1.04000
 6.95000    5.51     3.21   1.05550
 7.00000    5.51     3.20   1.07130
