 Field[T] Tsmpl[K] Tcntr[K] Signal
 7.00000    5.64     3.20   0.34960
 6.95000    5.64     3.19   0.33920
 6.90000    5.65     3.20   0.33320
 6.85000    5.65     3.20   0.32170
 6.80000    5.66     3.20   0.31240
 6.75000    5.66     3.21   0.30250
 6.70000    5.67     3.20   0.29650
 6.65000    5.67     3.20   0.28770
 6.60000    5.68     3.21   0.28300
 6.55000    5.68     3.20   0.27610
 6.50000    5.69     3.19   0.27000
 6.45000    5.69     3.21   0.26300
 6.40000    5.70     3.21   0.25670
 6.35000    5.70     3.19   0.25310
 6.30000    5.70     3.20   0.25040
 6.25000    5.71     3.20   0.24550
 6.20000    5.71     3.20   0.23930
 6.15000    5.72     3.20   0.23880
 6.10000    5.72     3.21   0.23780
 6.05000    5.73     3.20   0.23710
 6.00000    5.74     3.20   0.23560
 5.95000    5.74     3.20   0.23250
 5.90000    5.75     3.21   0.23150
 5.85000    5.76     3.20   0.23220
 5.80000    5.77     3.20   0.23270
 5.75000    5.78     3.20   0.23470
 5.70000    5.78     3.20   0.23770
 5.65000    5.79     3.21   0.23890
 5.60000    5.80     3.20   0.24570
 5.55000    5.81     3.20   0.24790
 5.50000    5.82     3.20   0.25400
 5.45000    5.83     3.20   0.25920
 5.40000    5.84     3.21   0.26570
 5.35000    5.84     3.19   0.27510
 5.30000    5.85     3.20   0.28240
 5.25000    5.86     3.20   0.29000
 5.20000    5.87     0.00   0.30000
 5.15000    5.88     3.21   0.31000
 5.10000    5.89     3.21   0.31910
 5.05000    5.90     3.20   0.33110
 5.00000    5.91     3.18   0.34570
 4.95000    5.91     3.20   0.35480
 4.90000    5.90     3.22   0.36970
 4.85000    5.90     3.21   0.38500
 4.80000    5.90     3.21   0.39840
 4.75000    5.89     3.21   0.41320
 4.70000    5.89     3.21   0.43110
 4.65000    5.88     3.20   0.44780
 4.60000    5.88     3.19   0.46340
 4.55000    5.87     3.20   0.48390
 4.50000    5.87     3.19   0.50480
 4.45000    5.86     3.20   0.52300
 4.40000    5.86     3.19   0.54460
 4.35000    5.86     3.21   0.56220
 4.30000    5.86     3.19   0.58410
 4.25000    5.85     3.20   0.60590
 4.20000    5.85     3.20   0.62800
 4.15000    5.85     3.19   0.64680
 4.10000    5.85     3.20   0.66350
 4.05000    5.85     3.19   0.68820
 4.00000    5.84     3.20   0.71130
 3.95000    5.84     3.19   0.72810
 3.90000    5.84     3.20   0.74550
 3.85000    5.83     3.20   0.76260
 3.80000    5.83     3.19   0.78260
 3.75000    5.83     3.20   0.79490
 3.70000    5.83     3.21   0.81250
 3.65000    5.83     3.19   0.82440
 3.60000    5.83     3.20   0.84090
 3.55000    5.83     3.20   0.85400
 3.50000    5.84     3.20   0.86610
 3.45000    5.84     3.20   0.87820
 3.40000    5.84     3.20   0.88790
 3.35000    5.84     3.20   0.89800
 3.30000    5.84     3.20   0.91070
 3.25000    5.84     3.20   0.92530
 3.20000    5.84     3.21   0.93870
 3.15000    5.84     3.20   0.95570
 3.10000    5.84     3.20   0.97690
 3.05000    5.84     3.19   1.00580
 3.00000    5.84     3.21   1.02760
 2.95000    5.84     3.19   1.04830
 2.90000    5.84     3.20   1.07560
 2.85000    5.84     3.20   1.08350
 2.80000    5.83     3.19   1.08180
 2.75000    5.83     3.20   1.08290
 2.70000    5.83     3.20   1.07440
 2.65000    5.82     3.19   1.09380
 2.60000    5.82     3.20   1.13060
 2.55000    5.82     3.19   1.17010
 2.50000    5.81     3.19   1.20140
 2.45000    5.81     3.20   1.23530
 2.40000    5.80     3.19   1.27390
 2.35000    5.80     3.20   1.30840
 2.30000    5.79     3.20   1.33590
 2.25000    5.79     3.20   1.34380
 2.20000    5.79     3.19   1.35490
 2.15000    5.78     3.19   1.38410
 2.10000    5.78     3.20   1.41590
 2.05000    5.78     3.20   1.45100
 2.00000    5.77     3.20   1.49400
 1.95000    5.77     3.20   1.51480
 1.90000    5.77     3.19   1.52240
 1.85000    5.76     3.20   1.52540
 1.80000    5.76     3.20   1.52980
 1.75000    5.76     3.20   1.54260
 1.70000    5.76     3.21   1.55490
 1.65000    5.76     3.20   1.56580
 1.60000    5.76     3.19   1.58480
 1.55000    5.75     3.19   1.60410
 1.50000    5.75     3.19   1.62700
 1.45000    5.74     3.20   1.64550
 1.40000    5.74     3.19   1.66140
 1.35000    5.74     3.20   1.66460
 1.30000    5.73     3.19   1.66720
 1.25000    5.73     3.20   1.66360
 1.20000    5.72     3.20   1.66810
 1.15000    5.72     3.19   1.67290
 1.10000    5.71     3.20   1.68020
 1.05000    5.71     3.19   1.68640
 1.00000    5.71     3.20   1.68870
 0.95000    5.70     3.19   1.69230
 0.90000    5.70     3.20   1.69520
 0.85000    5.70     3.19   1.69630
 0.80000    5.69     3.19   1.70120
 0.75000    5.68     3.20   1.70590
 0.70000    5.67     3.20   1.71270
 0.65000    5.66     3.20   1.72370
 0.60000    5.64     3.20   1.73830
 0.55000    5.63     3.19   1.75110
 0.50000    5.61     3.19   1.75880
 0.45000    5.58     3.19   1.76790
 0.40000    5.55     3.19   1.77610
 0.35000    5.53     3.18   1.78500
 0.30000    5.51     3.19   1.78690
 0.25000    5.50     3.19   1.78970
 0.20000    5.49     3.19   1.79240
 0.15000    5.48     3.19   1.79520
 0.10000    5.47     3.20   1.79620
 0.05000    5.47     3.20   1.79550
-0.00000    5.46     3.19   1.79860
