 Field[T] Tsmpl[K] Tcntr[K] Signal   Mirror[MM]
 0.00000    4.96     3.17   0.28576  1.3115
 0.05000    4.95     3.18   0.28549  1.3115
 0.10000    4.94     3.17   0.28543  1.3115
 0.15000    4.95     3.17   0.28547  1.3115
 0.20000    4.94     3.19   0.28536  1.3115
 0.25000    4.94     3.19   0.28511  1.3120
 0.30000    4.94     3.19   0.28480  1.3120
 0.35000    4.94     3.19   0.28445  1.3125
 0.40000    4.95     3.18   0.28415  1.3130
 0.45000    4.95     3.19   0.28387  1.3130
 0.50000    4.95     3.20   0.28339  1.3135
 0.55000    4.95     3.17   0.28301  1.3145
 0.60000    4.95     3.17   0.28278  1.3145
 0.65000    4.95     3.19   0.28217  1.3150
 0.70000    4.94     3.16   0.28175  1.3155
 0.75000    4.93     3.17   0.28146  1.3160
 0.80000    4.92     3.17   0.28064  1.3168
 0.85000    4.92     3.16   0.27982  1.3170
 0.90000    4.91     3.16   0.27920  1.3180
 0.95000    4.91     3.16   0.27832  1.3188
 1.00000    4.90     3.16   0.27754  1.3190
 1.05000    4.89     3.17   0.27644  1.3200
 1.10000    4.89     3.16   0.27539  1.3206
 1.15000    4.89     3.16   0.27432  1.3210
 1.20000    4.89     3.16   0.27349  1.3220
 1.25000    4.88     3.15   0.27269  1.3223
 1.30000    4.88     3.15   0.27140  1.3230
 1.35000    4.88     3.17   0.27059  1.3240
 1.40000    4.88     3.17   0.26948  1.3245
 1.45000    4.89     3.16   0.26810  1.3251
 1.50000    4.88     3.15   0.26680  1.3260
 1.55000    4.87     3.16   0.26548  1.3266
 1.60000    4.86     3.17   0.26423  1.3280
 1.65000    4.86     3.17   0.26319  1.3280
 1.70000    4.85     3.17   0.26165  1.3285
 1.75000    4.85     3.18   0.26028  1.3291
 1.80000    4.85     3.19   0.25901  1.3305
 1.85000    4.85     3.18   0.25761  1.3310
 1.90000    4.85     3.18   0.25629  1.3320
 1.95000    4.85     3.18   0.25508  1.3330
 2.00000    4.86     3.18   0.25328  1.3340
 2.05000    4.87     3.20   0.25114  1.3346
 2.10000    4.87     3.19   0.24983  1.3350
 2.15000    4.88     3.19   0.24836  1.3360
 2.20000    4.89     3.20   0.24668  1.3369
 2.25000    4.90     3.20   0.24514  1.3380
 2.30000    4.92     3.20   0.24335  1.3390
 2.35000    4.93     3.20   0.24119  1.3395
 2.40000    4.95     3.21   0.23926  1.3409
 2.45000    4.96     3.20   0.23723  1.3405
 2.50000    4.97     3.20   0.23503  1.3410
 2.55000    4.97     3.22   0.23356  1.3410
 2.60000    4.97     3.21   0.23198  1.3413
 2.65000    4.98     3.20   0.23035  1.3425
 2.70000    4.97     3.21   0.22816  1.3430
 2.75000    4.97     3.20   0.22616  1.3430
 2.80000    4.96     3.20   0.22463  1.3440
 2.85000    4.96     3.20   0.22264  1.3445
 2.90000    4.95     3.20   0.22071  1.3458
 2.95000    4.95     3.21   0.21822  1.3465
 3.00000    4.95     3.20   0.21620  1.3470
 3.05000    4.96     3.20   0.21369  1.3472
 3.10000    4.97     3.22   0.21178  1.3475
 3.15000    4.97     3.20   0.20921  1.3480
 3.20000    4.97     3.20   0.20711  1.3480
 3.25000    4.97     3.21   0.20473  1.3485
 3.30000    4.97     3.21   0.20254  1.3485
 3.35000    4.97     3.20   0.20006  1.3485
 3.40000    4.98     3.21   0.19797  1.3480
 3.45000    4.98     3.20   0.19588  1.3480
 3.50000    4.98     3.20   0.19387  1.3476
 3.55000    4.98     3.20   0.19153  1.3470
 3.60000    4.98     3.21   0.18960  1.3470
 3.65000    4.98     3.20   0.18755  1.3465
 3.70000    4.98     3.20   0.18513  1.3476
 3.75000    4.99     3.21   0.18364  1.3470
 3.80000    4.99     3.20   0.18188  1.3470
 3.85000    4.99     3.20   0.17940  1.3470
 3.90000    5.00     3.20   0.17731  1.3470
 3.95000    5.00     3.20   0.17502  1.3470
 4.00000    5.00     3.20   0.17263  1.3470
 4.05000    5.00     3.20   0.17018  1.3470
 4.10000    5.00     3.20   0.16768  1.3465
 4.15000    5.00     3.21   0.16520  1.3460
 4.20000    5.00     3.20   0.16257  1.3455
 4.25000    4.99     3.19   0.16000  1.3448
 4.30000    4.99     3.20   0.15714  1.3437
 4.35000    4.98     3.20   0.15448  1.3420
 4.40000    4.98     3.20   0.15201  1.3403
 4.45000    4.99     3.19   0.14892  1.3390
 4.50000    4.98     3.19   0.14640  1.3368
 4.55000    4.97     3.19   0.14388  1.3340
 4.60000    4.97     3.19   0.14136  1.3315
 4.65000    4.97     3.20   0.13891  1.3286
 4.70000    4.98     3.20   0.13656  1.3257
 4.75000    4.98     3.21   0.13450  1.3221
 4.80000    4.99     3.19   0.13228  1.3185
 4.85000    4.99     3.19   0.13008  1.3143
 4.90000    5.00     3.20   0.12825  1.3100
 4.95000    5.01     3.21   0.12672  1.3056
 5.00000    5.02     3.20   0.12510  1.3005
 5.05000    5.03     3.21   0.12356  1.2955
 5.10000    5.13     3.20   0.12149  1.2916
 5.15000    5.16     3.21   0.11982  1.2870
 5.20000    5.15     3.19   0.11825  1.2823
 5.25000    5.15     3.20   0.11690  1.2770
 5.30000    5.15     3.19   0.11592  1.2717
 5.35000    5.15     3.20   0.11495  1.2656
 5.40000    5.15     3.20   0.11378  1.2602
 5.45000    5.16     3.21   0.11321  1.2548
 5.50000    5.16     3.21   0.11245  1.2495
 5.55000    5.16     3.20   0.11183  1.2439
 5.60000    5.17     3.21   0.11116  1.2379
 5.65000    5.17     3.20   0.11082  1.2320
 5.70000    5.17     3.20   0.11020  1.2263
 5.75000    5.17     3.21   0.10988  1.2208
 5.80000    5.17     3.20   0.10963  1.2153
 5.85000    5.16     3.20   0.10934  1.2100
 5.90000    5.16     3.20   0.10939  1.2027
 5.95000    5.16     3.22   0.10952  1.1981
 6.00000    5.17     3.21   0.10964  1.1925
 6.05000    5.17     3.19   0.10956  1.1868
 6.10000    5.17     3.20   0.10980  1.1816
 6.15000    5.17     3.20   0.11032  1.1766
 6.20000    5.17     3.20   0.11076  1.1720
 6.25000    5.17     3.20   0.11125  1.1670
 6.30000    5.17     3.20   0.11153  1.1620
 6.35000    5.17     3.20   0.11234  1.1568
 6.40000    5.16     3.19   0.11266  1.1519
 6.45000    5.15     3.21   0.11373  1.1480
 6.50000    5.16     3.20   0.11438  1.1440
 6.55000    5.17     3.19   0.11521  1.1396
 6.60000    5.18     3.20   0.11632  1.1359
 6.65000    5.18     3.19   0.11708  1.1319
 6.70000    5.19     3.20   0.11830  1.1276
 6.75000    5.20     3.20   0.11909  1.1245
 6.80000    5.20     3.21   0.12027  1.1253
 6.85000    5.22     3.20   0.12121  1.1235
 6.90000    5.22     3.21   0.12239  1.1201
 6.95000    5.22     3.21   0.12350  1.1110
 7.00000    5.23     3.21   0.12468  1.1084
 7.00000    5.23     3.21   0.12460  1.1083
 6.95000    5.23     3.20   0.12374  1.1110
 6.90000    5.23     3.20   0.12265  1.1144
 6.85000    5.24     3.20   0.12156  1.1176
 6.80000    5.24     3.20   0.12063  1.1209
 6.75000    5.24     3.20   0.11965  1.1245
 6.70000    5.24     3.20   0.11847  1.1283
 6.65000    5.24     3.20   0.11774  1.1326
 6.60000    5.24     3.19   0.11674  1.1364
 6.55000    5.23     3.20   0.11616  1.1407
 6.50000    5.23     3.20   0.11503  1.1448
 6.45000    5.22     3.20   0.11451  1.1491
 6.40000    5.22     3.19   0.11352  1.1533
 6.35000    5.22     3.19   0.11312  1.1575
 6.30000    5.21     3.20   0.11263  1.1629
 6.25000    5.21     3.21   0.11201  1.1679
 6.20000    5.22     3.20   0.11154  1.1732
 6.15000    5.23     3.20   0.11130  1.1780
 6.10000    5.23     3.22   0.11111  1.1822
 6.05000    5.24     3.20   0.11065  1.1879
 6.00000    5.24     3.20   0.11067  1.1933
 5.95000    5.24     3.19   0.11041  1.1989
 5.90000    5.24     3.20   0.11058  1.2048
 5.85000    5.25     3.20   0.11067  1.2106
 5.80000    5.25     3.20   0.11099  1.2159
 5.75000    5.25     3.20   0.11114  1.2212
 5.70000    5.25     3.20   0.11144  1.2265
 5.65000    5.25     3.21   0.11199  1.2325
 5.60000    5.26     3.20   0.11237  1.2379
 5.55000    5.26     3.19   0.11289  1.2439
 5.50000    5.26     3.20   0.11352  1.2499
 5.45000    5.26     3.20   0.11420  1.2549
 5.40000    5.26     3.21   0.11520  1.2602
 5.35000    5.26     3.20   0.11598  1.2656
 5.30000    5.26     3.19   0.11696  1.2713
 5.25000    5.27     3.21   0.11824  1.2770
 5.20000    5.28     3.20   0.11954  1.2817
 5.15000    5.28     3.20   0.12088  1.2870
 5.10000    5.28     3.20   0.12219  1.2918
 5.05000    5.28     3.20   0.12399  1.2960
 5.00000    5.28     3.20   0.12574  1.3009
 4.95000    5.29     3.21   0.12738  1.3054
 4.90000    5.31     3.20   0.12938  1.3100
 4.85000    5.32     3.22   0.13163  1.3136
 4.80000    5.32     3.20   0.13342  1.3174
 4.75000    5.33     3.20   0.13558  1.3210
 4.70000    5.33     3.21   0.13777  1.3244
 4.65000    5.33     3.20   0.14006  1.3273
 4.60000    5.34     3.19   0.14256  1.3300
 4.55000    5.34     3.21   0.14511  1.3326
 4.50000    5.34     3.20   0.14741  1.3350
 4.45000    5.34     3.19   0.15015  1.3370
 4.40000    5.35     3.20   0.15276  1.3388
 4.35000    5.35     3.19   0.15541  1.3405
 4.30000    5.35     3.21   0.15816  1.3415
 4.25000    5.35     3.20   0.16070  1.3435
 4.20000    5.35     3.19   0.16293  1.3440
 4.15000    5.35     3.21   0.16572  1.3455
 4.10000    5.36     3.20   0.16820  1.3453
 4.05000    5.36     3.21   0.17074  1.3459
 4.00000    5.36     3.21   0.17313  1.3460
 3.95000    5.37     3.19   0.17550  1.3465
 3.90000    5.37     3.20   0.17776  1.3460
 3.85000    5.37     3.20   0.17996  1.3460
 3.80000    5.37     3.20   0.18214  1.3455
 3.75000    5.37     3.21   0.18434  1.3457
 3.70000    5.37     3.20   0.18635  1.3455
 3.65000    5.37     3.20   0.18836  1.3460
 3.60000    5.37     3.19   0.19013  1.3460
 3.55000    5.38     3.21   0.19200  1.3461
 3.50000    5.38     3.19   0.19461  1.3465
 3.45000    5.38     3.19   0.19677  1.3470
 3.40000    5.38     3.20   0.19871  1.3470
 3.35000    5.38     3.21   0.20116  1.3470
 3.30000    5.38     3.21   0.20309  1.3470
 3.25000    5.38     3.20   0.20542  1.3475
 3.20000    5.38     3.19   0.20762  1.3476
 3.15000    5.38     3.20   0.20950  1.3475
 3.10000    5.39     3.19   0.21221  1.3467
 3.05000    5.39     3.20   0.21441  1.3459
 3.00000    5.39     3.20   0.21675  1.3448
 2.95000    5.39     3.21   0.21918  1.3450
 2.90000    5.40     3.21   0.22160  1.3455
 2.85000    5.40     3.19   0.22351  1.3435
 2.80000    5.41     3.20   0.22533  1.3437
 2.75000    5.41     3.20   0.22702  1.3508
 2.70000    5.42     3.21   0.22932  1.3474
 2.65000    5.43     3.20   0.23135  1.3460
 2.60000    5.43     3.20   0.23282  1.3450
 2.55000    5.43     3.20   0.23458  1.3460
 2.50000    5.43     3.20   0.23685  1.3460
 2.45000    5.46     3.20   0.23888  1.3462
 2.40000    5.46     3.20   0.24105  1.3448
 2.35000    5.46     3.21   0.24292  1.3437
 2.30000    5.45     3.19   0.24496  1.3425
 2.25000    5.45     3.19   0.24661  1.3410
 2.20000    5.45     3.20   0.24814  1.3378
 2.15000    5.44     3.19   0.24982  1.3416
 2.10000    5.44     3.20   0.25143  1.3391
 2.05000    5.44     3.20   0.25294  1.3310
 2.00000    5.44     3.20   0.25447  1.3308
 1.95000    5.44     3.19   0.25584  1.3300
 1.90000    5.45     3.19   0.25721  1.3290
 1.85000    5.45     3.19   0.25818  1.3285
 1.80000    5.44     3.19   0.25972  1.3275
 1.75000    5.43     3.20   0.26126  1.3320
 1.70000    5.42     3.20   0.26263  1.3272
 1.65000    5.41     3.19   0.26342  1.3255
 1.60000    5.41     3.20   0.26489  1.3301
 1.55000    5.40     3.20   0.26612  1.3290
 1.50000    5.38     3.21   0.26760  1.3280
 1.45000    5.37     3.20   0.26868  1.3265
 1.40000    5.36     3.20   0.26971  1.3222
 1.35000    5.34     3.19   0.27086  1.3220
 1.30000    5.32     3.21   0.27161  1.3220
 1.25000    5.31     3.20   0.27248  1.3218
 1.20000    5.29     3.19   0.27365  1.3205
 1.15000    5.27     3.18   0.27449  1.3195
 1.10000    5.25     3.21   0.27536  1.3190
 1.05000    5.23     3.18   0.27627  1.3190
 1.00000    5.21     3.19   0.27693  1.3190
 0.95000    5.19     3.18   0.27766  1.3185
 0.90000    5.17     3.18   0.27842  1.3180
 0.85000    5.15     3.18   0.27933  1.3170
 0.80000    5.14     3.17   0.27965  1.3165
 0.75000    5.11     3.15   0.28051  1.3160
 0.70000    5.08     3.15   0.28126  1.3151
 0.65000    5.05     3.14   0.28167  1.3149
 0.60000    5.01     3.14   0.28193  1.3145
 0.55000    4.99     3.13   0.28230  1.3140
 0.50000    4.96     3.11   0.28299  1.3140
 0.45000    4.93     3.12   0.28289  1.3140
 0.40000    4.90     3.10   0.28363  1.3140
 0.35000    4.89     3.11   0.28389  1.3135
 0.30000    4.86     3.10   0.28391  1.3130
 0.25000    4.83     3.10   0.28408  1.3130
 0.20000    4.80     3.08   0.28449  1.3130
 0.15000    4.76     3.07   0.28434  1.3130
 0.10000    4.74     3.07   0.28457  1.3130
 0.05000    4.70     3.08   0.28465  1.3130
-0.00000    4.68     3.06   0.28488  1.3130
 0.00000    4.67     3.06   0.28468  1.3130
-0.05000    4.65     3.08   0.28458  1.3130
-0.10000    4.63     3.06   0.28470  1.3130
-0.15000    4.61     3.05   0.28462  1.3130
-0.20000    4.60     3.06   0.28463  1.3134
-0.25000    4.58     3.05   0.28444  1.3135
-0.30000    4.57     3.07   0.28434  1.3140
-0.35000    4.55     3.06   0.28417  1.3145
-0.40000    4.53     3.06   0.28376  1.3150
-0.45000    4.50     3.06   0.28341  1.3150
-0.50000    4.48     3.06   0.28314  1.3155
-0.55000    4.45     3.07   0.28258  1.3160
-0.60000    4.43     3.03   0.28204  1.3164
-0.65000    4.40     3.04   0.28144  1.3177
-0.70000    4.38     3.02   0.28128  1.3175
-0.75000    4.35     3.02   0.28032  1.3185
-0.80000    4.32     3.02   0.27984  1.3190
-0.85000    4.30     3.02   0.27910  1.3200
-0.90000    4.23     2.96   0.27836  1.3203
-0.95000    4.21     2.98   0.27730  1.3210
-1.00000    4.18     2.98   0.27631  1.3218
-1.05000    4.17     2.98   0.27554  1.3220
-1.10000    4.15     3.00   0.27439  1.3230
-1.15000    4.15     3.01   0.27389  1.3235
-1.20000    4.15     3.02   0.27270  1.3240
-1.25000    4.15     3.02   0.27143  1.3250
-1.30000    4.16     3.03   0.27042  1.3255
-1.35000    4.16     3.04   0.26893  1.3265
-1.40000    4.16     3.05   0.26794  1.3275
-1.45000    4.17     3.06   0.26654  1.3280
-1.50000    4.18     3.07   0.26531  1.3285
-1.55000    4.19     3.10   0.26411  1.3290
-1.60000    4.20     3.10   0.26265  1.3300
-1.65000    4.21     3.11   0.26132  1.3305
-1.70000    4.22     3.12   0.26002  1.3310
-1.75000    4.22     3.12   0.25887  1.3320
-1.80000    4.23     3.13   0.25734  1.3325
-1.85000    4.24     3.13   0.25564  1.3330
-1.90000    4.24     3.14   0.25419  1.3340
-1.95000    4.24     3.14   0.25226  1.3350
-2.00000    4.25     3.15   0.25081  1.3355
-2.05000    4.25     3.16   0.24923  1.3365
-2.10000    4.26     3.17   0.24771  1.3375
-2.15000    4.26     3.16   0.24593  1.3388
-2.20000    4.25     3.16   0.24410  1.3395
-2.25000    4.25     3.17   0.24198  1.3405
-2.30000    4.25     3.17   0.23983  1.3414
-2.35000    4.25     3.18   0.23783  1.3415
-2.40000    4.24     3.17   0.23581  1.3415
-2.45000    4.24     3.18   0.23451  1.3415
-2.50000    4.24     3.19   0.23328  1.3415
-2.55000    4.24     3.19   0.23138  1.3430
-2.60000    4.24     3.19   0.22968  1.3435
-2.65000    4.24     3.19   0.22811  1.3441
-2.70000    4.25     3.20   0.22642  1.3450
-2.75000    4.25     3.20   0.22481  1.3460
-2.80000    4.25     3.20   0.22304  1.3470
-2.85000    4.25     3.20   0.22086  1.3478
-2.90000    4.25     3.20   0.21868  1.3484
-2.95000    4.25     3.20   0.21631  1.3494
-3.00000    4.26     3.20   0.21404  1.3505
-3.05000    4.26     3.19   0.21157  1.3510
-3.10000    4.25     3.20   0.20924  1.3512
-3.15000    4.25     3.20   0.20690  1.3515
-3.20000    4.24     3.20   0.20456  1.3520
-3.25000    4.24     3.20   0.20204  1.3525
-3.30000    4.25     3.19   0.19982  1.3525
-3.35000    4.26     3.20   0.19756  1.3520
-3.40000    4.26     3.20   0.19547  1.3520
-3.45000    4.27     3.20   0.19350  1.3510
-3.50000    4.28     3.20   0.19174  1.3510
-3.55000    4.28     3.20   0.18976  1.3510
-3.60000    4.29     3.21   0.18799  1.3510
-3.65000    4.30     3.21   0.18607  1.3510
-3.70000    4.32     3.21   0.18420  1.3510
-3.75000    4.32     3.21   0.18204  1.3515
-3.80000    4.33     3.22   0.18016  1.3520
-3.85000    4.34     3.22   0.17806  1.3525
-3.90000    4.36     3.22   0.17582  1.3530
-3.95000    4.36     3.22   0.17334  1.3530
-4.00000    4.37     3.22   0.17094  1.3530
-4.05000    4.38     3.22   0.16850  1.3530
-4.10000    4.39     3.22   0.16607  1.3535
-4.15000    4.39     3.22   0.16324  1.3535
-4.20000    4.39     3.22   0.16053  1.3530
-4.25000    4.39     3.22   0.15771  1.3525
-4.30000    4.39     3.22   0.15510  1.3517
-4.35000    4.40     3.22   0.15224  1.3504
-4.40000    4.41     3.21   0.14936  1.3490
-4.45000    4.41     3.22   0.14663  1.3470
-4.50000    4.42     3.22   0.14393  1.3445
-4.55000    4.43     3.22   0.14119  1.3425
-4.60000    4.44     3.23   0.13857  1.3390
-4.65000    4.45     3.23   0.13609  1.3353
-4.70000    4.46     3.23   0.13358  1.3322
-4.75000    4.47     3.23   0.13099  1.3290
-4.80000    4.47     3.23   0.12906  1.3253
-4.85000    4.47     3.22   0.12674  1.3215
-4.90000    4.48     3.23   0.12460  1.3170
-4.95000    4.49     3.24   0.12285  1.3123
-5.00000    4.49     3.24   0.12095  1.3070
-5.05000    4.49     3.24   0.11924  1.3020
-5.10000    4.50     3.24   0.11757  1.2970
-5.15000    4.50     3.24   0.11603  1.2919
-5.20000    4.50     3.24   0.11460  1.2868
-5.25000    4.51     3.25   0.11345  1.2812
-5.30000    4.51     3.24   0.11215  1.2754
-5.35000    4.52     3.24   0.11098  1.2696
-5.40000    4.51     3.24   0.10978  1.2633
-5.45000    4.51     3.24   0.10894  1.2575
-5.50000    4.51     3.24   0.10808  1.2523
-5.55000    4.52     3.23   0.10741  1.2462
-5.60000    4.52     3.23   0.10688  1.2402
-5.65000    4.52     3.23   0.10637  1.2336
-5.70000    4.52     3.24   0.10597  1.2275
-5.75000    4.53     3.24   0.10581  1.2217
-5.80000    4.54     3.24   0.10548  1.2160
-5.85000    4.54     3.24   0.10527  1.2102
-5.90000    4.55     3.24   0.10527  1.2040
-5.95000    4.55     3.24   0.10525  1.1975
-6.00000    4.56     3.24   0.10543  1.1911
-6.05000    4.56     3.24   0.10570  1.1860
-6.10000    4.56     3.24   0.10617  1.1802
-6.15000    4.57     3.24   0.10639  1.1749
-6.20000    4.58     3.24   0.10690  1.1694
-6.25000    4.59     3.23   0.10746  1.1640
-6.30000    4.59     3.24   0.10798  1.1582
-6.35000    4.59     3.23   0.10850  1.1533
-6.40000    4.60     3.22   0.10918  1.1486
-6.45000    4.60     3.22   0.10982  1.1444
-6.50000    4.60     3.22   0.11068  1.1397
-6.55000    4.60     3.22   0.11160  1.1350
-6.60000    4.61     3.23   0.11240  1.1307
-6.65000    4.61     3.24   0.11332  1.1260
-6.70000    4.61     3.23   0.11437  1.1220
-6.75000    4.62     3.23   0.11539  1.1181
-6.80000    4.62     3.23   0.11626  1.1142
-6.85000    4.62     3.23   0.11727  1.1105
-6.90000    4.62     3.23   0.11843  1.1071
-6.95000    4.63     3.23   0.11948  1.1040
-7.00000    4.63     3.23   0.12088  1.1013
-7.00000    4.63     3.23   0.12076  1.1010
-6.95000    4.63     3.23   0.11949  1.1049
-6.90000    4.63     3.22   0.11843  1.1080
-6.85000    4.63     3.22   0.11742  1.1116
-6.80000    4.63     3.22   0.11641  1.1153
-6.75000    4.63     3.22   0.11530  1.1193
-6.70000    4.62     3.22   0.11417  1.1234
-6.65000    4.62     3.22   0.11324  1.1277
-6.60000    4.62     3.22   0.11248  1.1323
-6.55000    4.62     3.22   0.11169  1.1369
-6.50000    4.62     3.21   0.11072  1.1415
-6.45000    4.62     3.22   0.11016  1.1458
-6.40000    4.62     3.21   0.10946  1.1503
-6.35000    4.62     3.22   0.10858  1.1550
-6.30000    4.63     3.21   0.10823  1.1601
-6.25000    4.63     3.21   0.10778  1.1659
-6.20000    4.63     3.21   0.10767  1.1719
-6.15000    4.63     3.21   0.10699  1.1768
-6.10000    4.63     3.21   0.10677  1.1819
-6.05000    4.64     3.21   0.10672  1.1874
-6.00000    4.64     3.20   0.10667  1.1933
-5.95000    4.64     3.21   0.10639  1.1990
-5.90000    4.65     3.20   0.10664  1.2057
-5.85000    4.65     3.20   0.10677  1.2115
-5.80000    4.65     3.20   0.10703  1.2174
-5.75000    4.65     3.20   0.10725  1.2226
-5.70000    4.66     3.20   0.10763  1.2286
-5.65000    4.67     3.21   0.10831  1.2348
-5.60000    4.67     3.21   0.10874  1.2411
-5.55000    4.68     3.21   0.10933  1.2474
-5.50000    4.68     3.21   0.11005  1.2528
-5.45000    4.68     3.20   0.11085  1.2582
-5.40000    4.68     3.21   0.11175  1.2640
-5.35000    4.69     3.21   0.11299  1.2697
-5.30000    4.69     3.21   0.11419  1.2759
-5.25000    4.70     3.21   0.11540  1.2813
-5.20000    4.70     3.21   0.11676  1.2865
-5.15000    4.70     3.20   0.11801  1.2913
-5.10000    4.70     3.20   0.11947  1.2963
-5.05000    4.70     3.19   0.12109  1.3014
-5.00000    4.70     3.20   0.12270  1.3063
-4.95000    4.70     3.19   0.12471  1.3110
-4.90000    4.70     3.19   0.12666  1.3159
-4.85000    4.70     3.20   0.12871  1.3200
-4.80000    4.70     3.20   0.13082  1.3240
-4.75000    4.70     3.20   0.13335  1.3275
-4.70000    4.71     3.20   0.13571  1.3309
-4.65000    4.71     3.20   0.13801  1.3336
-4.60000    4.71     3.20   0.14056  1.3367
-4.55000    4.71     3.20   0.14320  1.3390
-4.50000    4.71     3.19   0.14570  1.3419
-4.45000    4.71     3.20   0.14863  1.3440
-4.40000    4.71     3.20   0.15144  1.3455
-4.35000    4.71     3.19   0.15425  1.3470
-4.30000    4.71     3.19   0.15682  1.3480
-4.25000    4.71     3.20   0.15995  1.3490
-4.20000    4.72     3.20   0.16238  1.3495
-4.15000    4.72     3.20   0.16524  1.3500
-4.10000    4.73     3.20   0.16777  1.3500
-4.05000    4.73     3.21   0.17054  1.3500
-4.00000    4.74     3.20   0.17288  1.3502
-3.95000    4.74     3.20   0.17538  1.3500
-3.90000    4.75     3.20   0.17762  1.3500
-3.85000    4.75     3.20   0.17980  1.3495
-3.80000    4.75     3.20   0.18194  1.3495
-3.75000    4.75     3.20   0.18417  1.3490
-3.70000    4.76     3.20   0.18622  1.3490
-3.65000    4.76     3.20   0.18820  1.3490
-3.60000    4.76     3.19   0.19008  1.3485
-3.55000    4.76     3.19   0.19219  1.3485
-3.50000    4.76     3.19   0.19421  1.3490
-3.45000    4.76     3.19   0.19604  1.3491
-3.40000    4.76     3.19   0.19814  1.3500
-3.35000    4.76     3.19   0.20046  1.3500
-3.30000    4.76     3.19   0.20272  1.3500
-3.25000    4.76     3.20   0.20507  1.3500
-3.20000    4.77     3.19   0.20745  1.3500
-3.15000    4.77     3.19   0.20979  1.3495
-3.10000    4.77     3.20   0.21212  1.3490
-3.05000    4.77     3.20   0.21459  1.3490
-3.00000    4.77     3.20   0.21678  1.3480
-2.95000    4.77     3.20   0.21883  1.3475
-2.90000    4.77     3.20   0.22113  1.3465
-2.85000    4.77     3.20   0.22349  1.3450
-2.80000    4.77     3.20   0.22533  1.3442
-2.75000    4.77     3.20   0.22683  1.3435
-2.70000    4.77     3.19   0.22845  1.3430
-2.65000    4.76     3.19   0.23015  1.3420
-2.60000    4.76     3.19   0.23213  1.3417
-2.55000    4.76     3.19   0.23381  1.3405
-2.50000    4.76     3.19   0.23508  1.3400
-2.45000    4.76     3.20   0.23657  1.3400
-2.40000    4.76     3.19   0.23896  1.3400
-2.35000    4.76     3.20   0.24068  1.3400
-2.30000    4.76     3.20   0.24290  1.3390
-2.25000    4.76     3.20   0.24478  1.3380
-2.20000    4.75     3.20   0.24681  1.3372
-2.15000    4.74     3.20   0.24840  1.3365
-2.10000    4.73     3.20   0.24974  1.3355
-2.05000    4.73     3.20   0.25146  1.3349
-2.00000    4.72     3.20   0.25306  1.3340
-1.95000    4.72     3.20   0.25440  1.3335
-1.90000    4.71     3.20   0.25596  1.3330
-1.85000    4.71     3.20   0.25742  1.3320
-1.80000    4.71     3.19   0.25898  1.3315
-1.75000    4.70     3.20   0.26035  1.3305
-1.70000    4.70     3.20   0.26172  1.3300
-1.65000    4.70     3.19   0.26290  1.3295
-1.60000    4.70     3.19   0.26447  1.3285
-1.55000    4.69     3.19   0.26577  1.3280
-1.50000    4.69     3.19   0.26668  1.3270
-1.45000    4.69     3.19   0.26808  1.3265
-1.40000    4.69     3.19   0.26920  1.3260
-1.35000    4.68     3.19   0.27046  1.3255
-1.30000    4.67     3.20   0.27134  1.3250
-1.25000    4.66     3.19   0.27227  1.3245
-1.20000    4.65     3.19   0.27343  1.3235
-1.15000    4.64     3.19   0.27415  1.3230
-1.10000    4.63     3.18   0.27505  1.3230
-1.05000    4.61     3.18   0.27603  1.3226
-1.00000    4.59     3.18   0.27687  1.3220
-0.95000    4.58     3.18   0.27764  1.3215
-0.90000    4.56     3.18   0.27850  1.3210
-0.85000    4.54     3.16   0.27936  1.3205
-0.80000    4.50     3.15   0.28006  1.3195
-0.75000    4.46     3.13   0.28061  1.3190
-0.70000    4.42     3.12   0.28125  1.3185
-0.65000    4.37     3.11   0.28171  1.3185
-0.60000    4.34     3.11   0.28208  1.3177
-0.55000    4.32     3.10   0.28248  1.3171
-0.50000    4.30     3.10   0.28287  1.3170
-0.45000    4.29     3.10   0.28293  1.3165
-0.40000    4.27     3.10   0.28325  1.3160
-0.35000    4.24     3.10   0.28342  1.3160
-0.30000    4.22     3.09   0.28381  1.3160
-0.25000    4.21     3.09   0.28380  1.3160
-0.20000    4.19     3.09   0.28401  1.3160
-0.15000    4.18     3.10   0.28413  1.3160
-0.10000    4.17     3.11   0.28440  1.3155
-0.05000    4.17     3.11   0.28427  1.3155
 0.00000    4.17     3.12   0.28439  1.3155
