 Field[T] Tsmpl[K] Tcntr[K] Signal   Mirror[MM]
 0.00000    4.37     3.20   0.81017  3.8245
 0.05000    4.38     3.19   0.79403  3.8250
 0.10000    4.38     3.19   0.78340  3.8254
 0.15000    4.39     3.19   0.77441  3.8255
 0.20000    4.39     3.19   0.76542  3.8250
 0.25000    4.40     3.19   0.75862  3.8250
 0.30000    4.40     3.19   0.75192  3.8250
 0.35000    4.41     3.19   0.74775  3.8255
 0.40000    4.41     3.19   0.74220  3.8260
 0.45000    4.41     3.19   0.73730  3.8265
 0.50000    4.41     3.19   0.73358  3.8260
 0.55000    4.41     3.20   0.73058  3.8260
 0.60000    4.41     3.20   0.72662  3.8265
 0.65000    4.41     3.20   0.72227  3.8265
 0.70000    4.41     3.20   0.71767  3.8274
 0.75000    4.42     3.20   0.71497  3.8282
 0.80000    4.42     3.20   0.71156  3.8290
 0.85000    4.42     3.21   0.70823  3.8290
 0.90000    4.42     3.21   0.70442  3.8305
 0.95000    4.42     3.20   0.69931  3.8315
 1.00000    4.42     3.20   0.69588  3.8325
 1.05000    4.42     3.19   0.69136  3.8330
 1.10000    4.42     3.20   0.68806  3.8345
 1.15000    4.42     3.19   0.68339  3.8355
 1.20000    4.42     3.19   0.67795  3.8360
 1.25000    4.42     3.20   0.67298  3.8365
 1.30000    4.42     3.20   0.66912  3.8375
 1.35000    4.42     3.19   0.66522  3.8380
 1.40000    4.42     3.19   0.66106  3.8388
 1.45000    4.42     3.21   0.65825  3.8390
 1.50000    4.42     3.20   0.65525  3.8399
 1.55000    4.43     3.20   0.65206  3.8410
 1.60000    4.43     3.21   0.64962  3.8415
 1.65000    4.44     3.20   0.64586  3.8425
 1.70000    4.44     3.20   0.64231  3.8440
 1.75000    4.45     3.21   0.63960  3.8453
 1.80000    4.46     3.21   0.63588  3.8468
 1.85000    4.47     3.21   0.63285  3.8484
 1.90000    4.48     3.19   0.62816  3.8500
 1.95000    4.49     3.20   0.62171  3.8519
 2.00000    4.50     3.20   0.61773  3.8527
 2.05000    4.50     3.20   0.61212  3.8535
 2.10000    4.51     3.20   0.60781  3.8554
 2.15000    4.51     3.20   0.60316  3.8573
 2.20000    4.50     3.20   0.59788  3.8594
 2.25000    4.50     3.20   0.59192  3.8614
 2.30000    4.49     3.21   0.58519  3.8632
 2.35000    4.49     3.20   0.57719  3.8640
 2.40000    4.48     3.20   0.57103  3.8645
 2.45000    4.47     3.21   0.56634  3.8653
 2.50000    4.48     3.20   0.56062  3.8666
 2.55000    4.47     3.20   0.55504  3.8680
 2.60000    4.47     3.20   0.54885  3.8690
 2.65000    4.46     3.20   0.54280  3.8710
 2.70000    4.46     3.21   0.53572  3.8730
 2.75000    4.45     3.21   0.52868  3.8740
 2.80000    4.46     3.20   0.52056  3.8750
 2.85000    4.46     3.20   0.51287  3.8750
 2.90000    4.46     3.21   0.50757  3.8757
 2.95000    4.46     3.22   0.50270  3.8760
 3.00000    4.46     3.20   0.49778  3.8780
 3.05000    4.45     3.20   0.49191  3.8805
 3.10000    4.45     3.20   0.48461  3.8820
 3.15000    4.45     3.21   0.47707  3.8825
 3.20000    4.45     3.22   0.47004  3.8840
 3.25000    4.45     3.21   0.46322  3.8850
 3.30000    4.45     3.20   0.45584  3.8860
 3.35000    4.44     3.22   0.45083  3.8874
 3.40000    4.44     3.22   0.44427  3.8890
 3.45000    4.44     3.22   0.43647  3.8909
 3.50000    4.44     3.22   0.42795  3.8921
 3.55000    4.44     3.24   0.41957  3.8930
 3.60000    4.46     3.24   0.41029  3.8935
 3.65000    4.47     3.25   0.40162  3.8935
 3.70000    4.47     3.25   0.39363  3.8935
 3.75000    4.48     3.25   0.38544  3.8925
 3.80000    4.49     3.23   0.37851  3.8920
 3.85000    4.49     3.25   0.37067  3.8910
 3.90000    4.50     3.24   0.36405  3.8905
 3.95000    4.49     3.24   0.35732  3.8895
 4.00000    4.49     3.25   0.35153  3.8885
 4.05000    4.50     3.24   0.34449  3.8890
 4.10000    4.51     3.24   0.33844  3.8871
 4.15000    4.52     3.24   0.33130  3.8865
 4.20000    4.52     3.24   0.32496  3.8860
 4.25000    4.52     3.24   0.31873  3.8850
 4.30000    4.53     3.27   0.31291  3.8840
 4.35000    4.54     3.25   0.30612  3.8835
 4.40000    4.55     3.25   0.30031  3.8830
 4.45000    4.55     3.25   0.29408  3.8824
 4.50000    4.56     3.26   0.28814  3.8815
 4.55000    4.57     3.27   0.28192  3.8811
 4.60000    4.59     3.26   0.27578  3.8797
 4.65000    4.60     3.27   0.26986  3.8785
 4.70000    4.61     3.25   0.26351  3.8771
 4.75000    4.62     3.28   0.25693  3.8751
 4.80000    4.63     3.26   0.25086  3.8734
 4.85000    4.64     3.27   0.24417  3.8711
 4.90000    4.65     3.26   0.23826  3.8694
 4.95000    4.66     3.28   0.23260  3.8665
 5.00000    4.67     3.25   0.22640  3.8635
 5.05000    4.68     3.25   0.22073  3.8606
 5.10000    4.68     3.23   0.21522  3.8575
 5.15000    4.69     3.25   0.20933  3.8532
 5.20000    4.70     3.25   0.20403  3.8491
 5.25000    4.72     3.25   0.19836  3.8451
 5.30000    4.72     3.25   0.19254  3.8407
 5.35000    4.73     3.25   0.18804  3.8357
 5.40000    4.75     3.25   0.18371  3.8309
 5.45000    4.76     3.25   0.17899  3.8262
 5.50000    4.78     3.26   0.17471  3.8202
 5.55000    4.79     3.25   0.17019  3.8151
 5.60000    4.80     3.27   0.16557  3.8080
 5.65000    4.82     3.26   0.16280  3.8025
 5.70000    4.84     3.26   0.15972  3.7968
 5.75000    4.85     3.26   0.15641  3.7907
 5.80000    4.86     3.26   0.15372  3.7829
 5.85000    4.87     3.26   0.15111  3.7756
 5.90000    4.89     3.26   0.14851  3.7693
 5.95000    4.89     3.26   0.14599  3.7626
 6.00000    4.90     3.26   0.14372  3.7558
 6.05000    4.91     3.25   0.14171  3.7483
 6.10000    4.91     3.26   0.14019  3.7406
 6.15000    4.93     3.24   0.13808  3.7330
 6.20000    4.93     3.24   0.13737  3.7266
 6.25000    4.94     3.24   0.13597  3.7192
 6.30000    4.96     3.26   0.13525  3.7129
 6.35000    4.99     3.26   0.13398  3.7061
 6.40000    5.01     3.25   0.13339  3.6985
 6.45000    5.01     3.24   0.13271  3.6919
 6.50000    5.02     3.25   0.13252  3.6843
 6.55000    5.02     3.24   0.13255  3.6775
 6.60000    5.03     3.24   0.13262  3.6698
 6.65000    5.03     3.24   0.13287  3.6624
 6.70000    5.04     3.24   0.13319  3.6559
 6.75000    5.05     3.24   0.13371  3.6492
 6.80000    5.05     3.25   0.13400  3.6426
 6.85000    5.06     3.23   0.13446  3.6360
 6.90000    5.07     3.24   0.13508  3.6296
 6.95000    5.08     3.22   0.13601  3.6229
 7.00000    5.09     3.22   0.13740  3.6168
