 Field[T] Tsmpl[K] Tcntr[K] SignalIntensity   Mirror[MM]
 7.00000    4.65     4.65   0.00540  -9.8705
 6.95000    4.65     4.65   0.00560  -9.8638
 6.90000    4.65     4.65   0.00568  -9.8569
 6.85000    4.65     4.65   0.00589  -9.8504
 6.80000    4.65     4.65   0.00612  -9.8428
 6.75000    4.65     4.65   0.00639  -9.8360
 6.70000    4.65     4.65   0.00670  -9.8307
 6.65000    4.65     4.65   0.00707  -9.8229
 6.60000    4.65     4.65   0.00746  -9.8174
 6.55000    4.65     4.65   0.00783  -9.8111
 6.50000    4.65     4.65   0.00822  -9.8052
 6.45000    4.65     4.65   0.00859  -9.7992
 6.40000    4.65     4.65   0.00916  -9.7934
 6.35000    4.65     4.65   0.00968  -9.7881
 6.30000    4.65     4.65   0.01034  -9.7832
 6.25000    4.65     4.65   0.01106  -9.7784
 6.20000    4.65     4.65   0.01173  -9.7730
 6.15000    4.65     4.65   0.01259  -9.7682
 6.10000    4.65     4.65   0.01345  -9.7648
 6.05000    4.65     4.65   0.01447  -9.7609
 6.00000    4.65     4.65   0.01537  -9.7575
 5.95000    4.65     4.65   0.01660  -9.7538
 5.90000    4.65     4.65   0.01771  -9.7508
 5.85000    4.65     4.65   0.01906  -9.7486
 5.80000    4.65     4.65   0.02046  -9.7467
 5.75000    4.65     4.65   0.02231  -9.7454
 5.70000    4.65     4.65   0.02373  -9.7435
 5.65000    4.65     4.65   0.02571  -9.7433
 5.60000    4.65     4.65   0.02790  -9.7428
 5.55000    4.65     4.65   0.02945  -9.7437
 5.50000    4.65     4.65   0.03195  -9.7436
 5.45000    4.65     4.65   0.03388  -9.7448
 5.40000    4.65     4.65   0.03587  -9.7459
 5.35000    4.65     4.65   0.03856  -9.7470
 5.30000    4.65     4.65   0.04067  -9.7485
 5.25000    4.65     4.65   0.04333  -9.7500
 5.20000    4.65     4.65   0.04548  -9.7517
 5.15000    4.65     4.65   0.04780  -9.7538
 5.10000    4.65     4.65   0.05054  -9.7560
 5.05000    4.65     4.65   0.05305  -9.7576
 5.00000    4.65     4.65   0.05580  -9.7596
 4.95000    4.65     4.65   0.05843  -9.7615
 4.90000    4.65     4.65   0.06164  -9.7640
 4.85000    4.65     4.65   0.06461  -9.7665
 4.80000    4.65     4.65   0.06759  -9.7690
 4.75000    4.65     4.65   0.07088  -9.7718
 4.70000    4.65     4.65   0.07490  -9.7753
 4.65000    4.65     4.65   0.07819  -9.7786
 4.60000    4.65     4.65   0.08164  -9.7827
 4.55000    4.65     4.65   0.08539  -9.7868
 4.50000    4.65     4.65   0.08879  -9.7920
 4.45000    4.65     4.65   0.09150  -9.7970
 4.40000    4.65     4.65   0.09523  -9.8028
 4.35000    4.65     4.65   0.09785  -9.8092
 4.30000    4.65     4.65   0.10078  -9.8154
 4.25000    4.65     4.65   0.10255  -9.8213
 4.20000    4.65     4.65   0.10424  -9.8282
 4.15000    4.65     4.65   0.10592  -9.8339
 4.10000    4.65     4.65   0.10650  -9.8407
 4.05000    4.65     4.65   0.10673  -9.8471
 4.00000    4.65     4.65   0.10689  -9.8538
 3.95000    4.65     4.65   0.10708  -9.8598
 3.90000    4.65     4.65   0.10646  -9.8663
 3.85000    4.65     4.65   0.10621  -9.8719
 3.80000    4.65     4.65   0.10537  -9.8775
 3.75000    4.65     4.65   0.10444  -9.8836
 3.70000    4.65     4.65   0.10351  -9.8889
 3.65000    4.65     4.65   0.10202  -9.8934
 3.60000    4.65     4.65   0.10148  -9.8979
 3.55000    4.65     4.65   0.09934  -9.9023
 3.50000    4.65     4.65   0.09744  -9.9065
 3.45000    4.65     4.65   0.09538  -9.9103
 3.40000    4.65     4.65   0.09343  -9.9139
 3.35000    4.65     4.65   0.09135  -9.9174
 3.30000    4.65     4.65   0.08947  -9.9197
 3.25000    4.65     4.65   0.08773  -9.9216
 3.20000    4.65     4.65   0.08603  -9.9228
 3.15000    4.65     4.65   0.08496  -9.9236
 3.10000    4.65     4.65   0.08487  -9.9242
 3.05000    4.65     4.65   0.08484  -9.9248
 3.00000    4.65     4.65   0.08470  -9.9260
 2.95000    4.65     4.65   0.08424  -9.9273
 2.90000    4.65     4.65   0.08464  -9.9289
 2.85000    4.65     4.65   0.08435  -9.9314
 2.80000    4.65     4.65   0.08349  -9.9330
 2.75000    4.65     4.65   0.08281  -9.9343
 2.70000    4.65     4.65   0.08198  -9.9352
 2.65000    4.65     4.65   0.08093  -9.9356
 2.60000    4.65     4.65   0.08068  -9.9364
 2.55000    4.65     4.65   0.08135  -9.9377
 2.50000    4.65     4.65   0.08124  -9.9375
 2.45000    4.65     4.65   0.08093  -9.9393
 2.40000    4.65     4.65   0.08048  -9.9395
 2.35000    4.65     4.65   0.08026  -9.9409
 2.30000    4.65     4.65   0.08034  -9.9423
 2.25000    4.65     4.65   0.07986  -9.9431
 2.20000    4.65     4.65   0.07939  -9.9447
 2.15000    4.65     4.65   0.07871  -9.9451
 2.10000    4.65     4.65   0.07922  -9.9458
 2.05000    4.65     4.65   0.07864  -9.9465
 2.00000    4.65     4.65   0.07813  -9.9466
 1.95000    4.65     4.65   0.07849  -9.9475
 1.90000    4.65     4.65   0.07822  -9.9480
 1.85000    4.65     4.65   0.07835  -9.9475
 1.80000    4.65     4.65   0.07847  -9.9490
 1.75000    4.65     4.65   0.07864  -9.9498
 1.70000    4.65     4.65   0.07841  -9.9506
 1.65000    4.65     4.65   0.07833  -9.9512
 1.60000    4.65     4.65   0.07811  -9.9525
 1.55000    4.65     4.65   0.07813  -9.9532
 1.50000    4.65     4.65   0.07791  -9.9537
 1.45000    4.65     4.65   0.07786  -9.9547
 1.40000    4.65     4.65   0.07758  -9.9551
 1.35000    4.65     4.65   0.07769  -9.9558
 1.30000    4.65     4.65   0.07755  -9.9565
 1.25000    4.65     4.65   0.07720  -9.9571
 1.20000    4.65     4.65   0.07720  -9.9575
 1.15000    4.65     4.65   0.07684  -9.9576
 1.10000    4.65     4.65   0.07661  -9.9584
 1.05000    4.65     4.65   0.07673  -9.9576
 1.00000    4.65     4.65   0.07667  -9.9585
 0.95000    4.65     4.65   0.07626  -9.9590
 0.90000    4.65     4.65   0.07634  -9.9596
 0.85000    4.65     4.65   0.07631  -9.9603
 0.80000    4.65     4.65   0.07631  -9.9599
 0.75000    4.65     4.65   0.07612  -9.9605
 0.70000    4.65     4.65   0.07615  -9.9606
 0.65000    4.65     4.65   0.07626  -9.9606
 0.60000    4.65     4.65   0.07640  -9.9607
 0.55000    4.65     4.65   0.07656  -9.9615
 0.50000    4.65     4.65   0.07637  -9.9615
 0.45000    4.65     4.65   0.07642  -9.9615
 0.40000    4.65     4.65   0.07637  -9.9617
 0.35000    4.65     4.65   0.07645  -9.9620
 0.30000    4.65     4.65   0.07634  -9.9617
 0.25000    4.65     4.65   0.07654  -9.9617
 0.20000    4.65     4.65   0.07626  -9.9620
 0.15000    4.65     4.65   0.07596  -9.9614
 0.10000    4.65     4.65   0.07593  -9.9623
 0.05000    4.65     4.65   0.07593  -9.9621
 -0.00000    4.65     4.65   0.07631  -9.9622
