 Field[T] Tsmpl[K] Tcntr[K] SignalIntensity
 7.00000    1.87     1.87   0.20322
 6.95000    1.87     1.87   0.19710
 6.90000    1.87     1.87   0.19674
 6.85000    1.87     1.87   0.20358
 6.80000    1.87     1.87   0.19908
 6.75000    1.87     1.87   0.20322
 6.70000    1.87     1.87   0.20232
 6.65000    1.87     1.87   0.19656
 6.60000    1.87     1.87   0.19530
 6.55000    1.87     1.87   0.19764
 6.50000    1.87     1.87   0.19800
 6.45000    1.87     1.87   0.19782
 6.40000    1.87     1.87   0.19620
 6.35000    1.87     1.87   0.18882
 6.30000    1.87     1.87   0.19224
 6.25000    1.87     1.87   0.18702
 6.20000    1.87     1.87   0.19080
 6.15000    1.87     1.87   0.18810
 6.10000    1.87     1.87   0.18900
 6.05000    1.87     1.87   0.19152
 6.00000    1.87     1.87   0.18936
 5.95000    1.87     1.87   0.18792
 5.90000    1.87     1.87   0.18684
 5.85000    1.87     1.87   0.18900
 5.80000    1.87     1.87   0.19152
 5.75000    1.87     1.87   0.18972
 5.70000    1.87     1.87   0.19062
 5.65000    1.87     1.87   0.19152
 5.60000    1.87     1.87   0.18774
 5.55000    1.87     1.87   0.18846
 5.50000    1.87     1.87   0.18846
 5.45000    1.87     1.87   0.18756
 5.40000    1.87     1.87   0.18900
 5.35000    1.87     1.87   0.19008
 5.30000    1.87     1.87   0.18936
 5.25000    1.87     1.87   0.18648
 5.20000    1.87     1.87   0.18432
 5.15000    1.87     1.87   0.18576
 5.10000    1.87     1.87   0.18918
 5.05000    1.87     1.87   0.18666
 5.00000    1.87     1.87   0.18558
 4.95000    1.87     1.87   0.18072
 4.90000    1.87     1.87   0.18792
 4.85000    1.87     1.87   0.18414
 4.80000    1.87     1.87   0.18360
 4.75000    1.87     1.87   0.17874
 4.70000    1.87     1.87   0.18702
 4.65000    1.87     1.87   0.18360
 4.60000    1.87     1.87   0.18648
 4.55000    1.87     1.87   0.18468
 4.50000    1.87     1.87   0.18648
 4.45000    1.87     1.87   0.18324
 4.40000    1.87     1.87   0.18018
 4.35000    1.87     1.87   0.18378
 4.30000    1.87     1.87   0.18540
 4.25000    1.87     1.87   0.18018
 4.20000    1.87     1.87   0.17604
 4.15000    1.87     1.87   0.18252
 4.10000    1.87     1.87   0.18108
 4.05000    1.87     1.87   0.18000
 4.00000    1.87     1.87   0.18000
 3.95000    1.87     1.87   0.18144
 3.90000    1.87     1.87   0.18090
 3.85000    1.87     1.87   0.17748
 3.80000    1.87     1.87   0.18072
 3.75000    1.87     1.87   0.17712
 3.70000    1.87     1.87   0.17856
 3.65000    1.87     1.87   0.17982
 3.60000    1.87     1.87   0.18396
 3.55000    1.87     1.87   0.17784
 3.50000    1.87     1.87   0.17874
 3.45000    1.87     1.87   0.17838
 3.40000    1.87     1.87   0.18000
 3.35000    1.87     1.87   0.18072
 3.30000    1.87     1.87   0.17766
 3.25000    1.87     1.87   0.17586
 3.20000    1.87     1.87   0.17532
 3.15000    1.87     1.87   0.17550
 3.10000    1.87     1.87   0.17280
 3.05000    1.87     1.87   0.16794
 3.00000    1.87     1.87   0.16668
 2.95000    1.87     1.87   0.16956
 2.90000    1.87     1.87   0.16344
 2.85000    1.87     1.87   0.16542
 2.80000    1.87     1.87   0.16272
 2.75000    1.87     1.87   0.15858
 2.70000    1.87     1.87   0.15768
 2.65000    1.87     1.87   0.15750
 2.60000    1.87     1.87   0.15228
 2.55000    1.87     1.87   0.14580
 2.50000    1.87     1.87   0.15156
 2.45000    1.87     1.87   0.14382
 2.40000    1.87     1.87   0.14400
 2.35000    1.87     1.87   0.14436
 2.30000    1.87     1.87   0.13950
 2.25000    1.87     1.87   0.13842
 2.20000    1.87     1.87   0.13554
 2.15000    1.87     1.87   0.13338
 2.10000    1.87     1.87   0.13590
 2.05000    1.87     1.87   0.13662
 2.00000    1.87     1.87   0.13338
 1.95000    1.87     1.87   0.12942
 1.90000    1.87     1.87   0.12888
 1.85000    1.87     1.87   0.13050
 1.80000    1.87     1.87   0.13680
 1.75000    1.87     1.87   0.13446
 1.70000    1.87     1.87   0.13176
 1.65000    1.87     1.87   0.13446
 1.60000    1.87     1.87   0.13212
 1.55000    1.87     1.87   0.13518
 1.50000    1.87     1.87   0.13662
 1.45000    1.87     1.87   0.13518
 1.40000    1.87     1.87   0.13104
 1.35000    1.87     1.87   0.13536
 1.30000    1.87     1.87   0.13428
 1.25000    1.87     1.87   0.13716
 1.20000    1.87     1.87   0.12996
 1.15000    1.87     1.87   0.13392
 1.10000    1.87     1.87   0.12780
 1.05000    1.87     1.87   0.13428
 1.00000    1.87     1.87   0.13338
 0.95000    1.87     1.87   0.13482
 0.90000    1.87     1.87   0.13248
 0.85000    1.87     1.87   0.13590
 0.80000    1.87     1.87   0.13842
 0.75000    1.87     1.87   0.14184
 0.70000    1.87     1.87   0.14598
 0.65000    1.87     1.87   0.13896
 0.60000    1.87     1.87   0.14400
 0.55000    1.87     1.87   0.14598
 0.50000    1.87     1.87   0.14652
 0.45000    1.87     1.87   0.14562
 0.40000    1.87     1.87   0.14652
 0.35000    1.87     1.87   0.14544
 0.30000    1.87     1.87   0.14922
 0.25000    1.87     1.87   0.14364
 0.20000    1.87     1.87   0.14886
 0.15000    1.87     1.87   0.14832
 0.10000    1.87     1.87   0.15030
 0.05000    1.87     1.87   0.15102
 -0.00000    1.87     1.87   0.14832
