 Field[T] Tsmpl[K] Tcntr[K] SignalIntensity
 0.00000    1.84     1.84   0.68703
 0.05000    1.84     1.84   0.68850
 0.10000    1.84     1.84   0.68780
 0.15000    1.84     1.84   0.68769
 0.20000    1.84     1.84   0.68841
 0.25000    1.84     1.84   0.68185
 0.30000    1.84     1.84   0.68168
 0.35000    1.84     1.84   0.67986
 0.40000    1.84     1.84   0.67764
 0.45000    1.84     1.84   0.67720
 0.50000    1.84     1.84   0.67609
 0.55000    1.84     1.84   0.67361
 0.60000    1.84     1.84   0.67111
 0.65000    1.84     1.84   0.66930
 0.70000    1.84     1.84   0.66690
 0.75000    1.84     1.84   0.66522
 0.80000    1.84     1.84   0.66327
 0.85000    1.84     1.84   0.65930
 0.90000    1.84     1.84   0.65422
 0.95000    1.84     1.84   0.65006
 1.00000    1.84     1.84   0.64394
 1.05000    1.84     1.84   0.64027
 1.10000    1.84     1.84   0.63464
 1.15000    1.84     1.84   0.62238
 1.20000    1.84     1.84   0.60864
 1.25000    1.84     1.84   0.59119
 1.30000    1.84     1.84   0.57944
 1.35000    1.84     1.84   0.55860
 1.40000    1.84     1.84   0.53753
 1.45000    1.84     1.84   0.51564
 1.50000    1.84     1.84   0.49289
 1.55000    1.84     1.84   0.47180
 1.60000    1.84     1.84   0.45024
 1.65000    1.84     1.84   0.42919
 1.70000    1.84     1.84   0.40857
 1.75000    1.84     1.84   0.39016
 1.80000    1.84     1.84   0.37191
 1.85000    1.84     1.84   0.35451
 1.90000    1.84     1.84   0.33813
 1.95000    1.84     1.84   0.32622
 2.00000    1.84     1.84   0.31391
 2.05000    1.84     1.84   0.30513
 2.10000    1.84     1.84   0.29655
 2.15000    1.84     1.84   0.29063
 2.20000    1.84     1.84   0.28462
 2.25000    1.84     1.84   0.27967
 2.30000    1.84     1.84   0.27886
 2.35000    1.84     1.84   0.27694
 2.40000    1.84     1.84   0.27755
 2.45000    1.84     1.84   0.27976
 2.50000    1.84     1.84   0.27957
 2.55000    1.84     1.84   0.28243
 2.60000    1.84     1.84   0.28481
 2.65000    1.84     1.84   0.28963
 2.70000    1.84     1.84   0.29242
 2.75000    1.84     1.84   0.29820
 2.80000    1.84     1.84   0.30281
 2.85000    1.84     1.84   0.30924
 2.90000    1.84     1.84   0.31525
 2.95000    1.84     1.84   0.32121
 3.00000    1.84     1.84   0.32760
 3.05000    1.84     1.84   0.33453
 3.10000    1.84     1.84   0.34135
 3.15000    1.84     1.84   0.34637
 3.20000    1.84     1.84   0.35222
 3.25000    1.84     1.84   0.35955
 3.30000    1.84     1.84   0.36427
 3.35000    1.84     1.84   0.37070
 3.40000    1.84     1.84   0.37648
 3.45000    1.84     1.84   0.37994
 3.50000    1.84     1.84   0.38428
 3.55000    1.84     1.84   0.38761
 3.60000    1.84     1.84   0.39007
 3.65000    1.84     1.84   0.39258
 3.70000    1.84     1.84   0.39525
 3.75000    1.84     1.84   0.39693
 3.80000    1.84     1.84   0.39716
 3.85000    1.84     1.84   0.39874
 3.90000    1.84     1.84   0.39878
 3.95000    1.84     1.84   0.39999
 4.00000    1.84     1.84   0.39961
 4.05000    1.84     1.84   0.39976
 4.10000    1.84     1.84   0.39888
 4.15000    1.84     1.84   0.39804
 4.20000    1.84     1.84   0.39821
 4.25000    1.84     1.84   0.39784
 4.30000    1.84     1.84   0.39696
 4.35000    1.84     1.84   0.39606
 4.40000    1.84     1.84   0.39525
 4.45000    1.84     1.84   0.39343
 4.50000    1.84     1.84   0.39266
 4.55000    1.84     1.84   0.39145
 4.60000    1.84     1.84   0.39054
 4.65000    1.84     1.84   0.39007
 4.70000    1.84     1.84   0.38899
 4.75000    1.84     1.84   0.38768
 4.80000    1.84     1.84   0.38741
 4.85000    1.84     1.84   0.38563
 4.90000    1.84     1.84   0.38411
 4.95000    1.84     1.84   0.38338
 5.00000    1.84     1.84   0.38192
 5.05000    1.84     1.84   0.38126
 5.10000    1.84     1.84   0.38015
 5.15000    1.84     1.84   0.37917
 5.20000    1.84     1.84   0.37692
 5.25000    1.84     1.84   0.37641
 5.30000    1.84     1.84   0.37514
 5.35000    1.84     1.84   0.37408
 5.40000    1.84     1.84   0.37348
 5.45000    1.84     1.84   0.37200
 5.50000    1.84     1.84   0.37102
 5.55000    1.84     1.84   0.36841
 5.60000    1.84     1.84   0.36907
 5.65000    1.84     1.84   0.36703
 5.70000    1.84     1.84   0.36645
 5.75000    1.84     1.84   0.36598
 5.80000    1.84     1.84   0.36504
 5.85000    1.84     1.84   0.36269
 5.90000    1.84     1.84   0.36131
 5.95000    1.84     1.84   0.36093
 6.00000    1.84     1.84   0.35912
 6.05000    1.84     1.84   0.35741
 6.10000    1.84     1.84   0.35717
 6.15000    1.84     1.84   0.35569
 6.20000    1.84     1.84   0.35492
 6.25000    1.84     1.84   0.35357
 6.30000    1.84     1.84   0.35144
 6.35000    1.84     1.84   0.35054
 6.40000    1.84     1.84   0.35031
 6.45000    1.84     1.84   0.34772
 6.50000    1.84     1.84   0.34685
 6.55000    1.84     1.84   0.34634
 6.60000    1.84     1.84   0.34411
 6.65000    1.84     1.84   0.34371
 6.70000    1.84     1.84   0.34307
 6.75000    1.84     1.84   0.34156
 6.80000    1.84     1.84   0.33991
 6.85000    1.84     1.84   0.33995
 6.90000    1.84     1.84   0.33749
 6.95000    1.84     1.84   0.33755
 7.00000    1.84     1.84   0.33598
 7.00000    1.84     1.84   0.33611
 6.95000    1.84     1.84   0.33661
 6.90000    1.84     1.84   0.33806
 6.85000    1.84     1.84   0.34005
 6.80000    1.84     1.84   0.34092
 6.75000    1.84     1.84   0.34294
 6.70000    1.84     1.84   0.34462
 6.65000    1.84     1.84   0.34519
 6.60000    1.84     1.84   0.34728
 6.55000    1.84     1.84   0.34762
 6.50000    1.84     1.84   0.34919
 6.45000    1.84     1.84   0.35084
 6.40000    1.84     1.84   0.35186
 6.35000    1.84     1.84   0.35189
 6.30000    1.84     1.84   0.35414
 6.25000    1.84     1.84   0.35509
 6.20000    1.84     1.84   0.35613
 6.15000    1.84     1.84   0.35771
 6.10000    1.84     1.84   0.35902
 6.05000    1.84     1.84   0.35953
 6.00000    1.84     1.84   0.36187
 5.95000    1.84     1.84   0.36282
 5.90000    1.84     1.84   0.36352
 5.85000    1.84     1.84   0.36514
 5.80000    1.84     1.84   0.36716
 5.75000    1.84     1.84   0.36736
 5.70000    1.84     1.84   0.36864
 5.65000    1.84     1.84   0.36964
 5.60000    1.84     1.84   0.37113
 5.55000    1.84     1.84   0.37174
 5.50000    1.84     1.84   0.37255
 5.45000    1.84     1.84   0.37439
 5.40000    1.84     1.84   0.37624
 5.35000    1.84     1.84   0.37752
 5.30000    1.84     1.84   0.37877
 5.25000    1.84     1.84   0.37941
 5.20000    1.84     1.84   0.38096
 5.15000    1.84     1.84   0.38196
 5.10000    1.84     1.84   0.38374
 5.05000    1.84     1.84   0.38391
 5.00000    1.84     1.84   0.38555
 4.95000    1.84     1.84   0.38718
 4.90000    1.84     1.84   0.38818
 4.85000    1.84     1.84   0.38926
 4.80000    1.84     1.84   0.39043
 4.75000    1.84     1.84   0.39181
 4.70000    1.84     1.84   0.39292
 4.65000    1.84     1.84   0.39444
 4.60000    1.84     1.84   0.39508
 4.55000    1.84     1.84   0.39646
 4.50000    1.84     1.84   0.39672
 4.45000    1.84     1.84   0.39808
 4.40000    1.84     1.84   0.39840
 4.35000    1.84     1.84   0.40086
 4.30000    1.84     1.84   0.40020
 4.25000    1.84     1.84   0.40137
 4.20000    1.84     1.84   0.40301
 4.15000    1.84     1.84   0.40207
 4.10000    1.84     1.84   0.40305
 4.05000    1.84     1.84   0.40358
 4.00000    1.84     1.84   0.40358
 3.95000    1.84     1.84   0.40406
 3.90000    1.84     1.84   0.40477
 3.85000    1.84     1.84   0.40577
 3.80000    1.84     1.84   0.40494
 3.75000    1.84     1.84   0.40416
 3.70000    1.84     1.84   0.40103
 3.65000    1.84     1.84   0.40043
 3.60000    1.84     1.84   0.39700
 3.55000    1.84     1.84   0.39532
 3.50000    1.84     1.84   0.39124
 3.45000    1.84     1.84   0.38748
 3.40000    1.84     1.84   0.38321
 3.35000    1.84     1.84   0.37816
 3.30000    1.84     1.84   0.37291
 3.25000    1.84     1.84   0.36746
 3.20000    1.84     1.84   0.36191
 3.15000    1.84     1.84   0.35528
 3.10000    1.84     1.84   0.34906
 3.05000    1.84     1.84   0.34281
 3.00000    1.84     1.84   0.33513
 2.95000    1.84     1.84   0.32874
 2.90000    1.84     1.84   0.32222
 2.85000    1.84     1.84   0.31690
 2.80000    1.84     1.84   0.31168
 2.75000    1.84     1.84   0.30486
 2.70000    1.84     1.84   0.30042
 2.65000    1.84     1.84   0.29618
 2.60000    1.84     1.84   0.29265
 2.55000    1.84     1.84   0.28932
 2.50000    1.84     1.84   0.28791
 2.45000    1.84     1.84   0.28471
 2.40000    1.84     1.84   0.28468
 2.35000    1.84     1.84   0.28354
 2.30000    1.84     1.84   0.28579
 2.25000    1.84     1.84   0.28707
 2.20000    1.84     1.84   0.29205
 2.15000    1.84     1.84   0.29534
 2.10000    1.84     1.84   0.30214
 2.05000    1.84     1.84   0.31028
 2.00000    1.84     1.84   0.32073
 1.95000    1.84     1.84   0.33258
 1.90000    1.84     1.84   0.34644
 1.85000    1.84     1.84   0.36080
 1.80000    1.84     1.84   0.37866
 1.75000    1.84     1.84   0.39750
 1.70000    1.84     1.84   0.41590
 1.65000    1.84     1.84   0.43722
 1.60000    1.84     1.84   0.46027
 1.55000    1.84     1.84   0.48291
 1.50000    1.84     1.84   0.50521
 1.45000    1.84     1.84   0.52630
 1.40000    1.84     1.84   0.54945
 1.35000    1.84     1.84   0.57202
 1.30000    1.84     1.84   0.59331
 1.25000    1.84     1.84   0.61261
 1.20000    1.84     1.84   0.62880
 1.15000    1.84     1.84   0.64353
 1.10000    1.84     1.84   0.65658
 1.05000    1.84     1.84   0.66176
 1.00000    1.84     1.84   0.66694
 0.95000    1.84     1.84   0.67350
 0.90000    1.84     1.84   0.67804
 0.85000    1.84     1.84   0.68255
 0.80000    1.84     1.84   0.68497
 0.75000    1.84     1.84   0.68799
 0.70000    1.84     1.84   0.69116
 0.65000    1.84     1.84   0.69423
 0.60000    1.84     1.84   0.69591
 0.55000    1.84     1.84   0.69759
 0.50000    1.84     1.84   0.69856
 0.45000    1.84     1.84   0.69971
 0.40000    1.84     1.84   0.70173
 0.35000    1.84     1.84   0.70330
 0.30000    1.84     1.84   0.70468
 0.25000    1.84     1.84   0.70485
 0.20000    1.84     1.84   0.70725
 0.15000    1.84     1.84   0.70787
 0.10000    1.84     1.84   0.70660
 0.05000    1.84     1.84   0.70835
 -0.00000    1.84     1.84   0.70770
