 Field[T] Tsmpl[K] Tcntr[K] SignalIntensity
 0.00000    1.84     1.84   0.34892
 0.05000    1.84     1.84   0.34966
 0.10000    1.84     1.84   0.35036
 0.15000    1.84     1.84   0.35107
 0.20000    1.84     1.84   0.35228
 0.25000    1.84     1.84   0.35435
 0.30000    1.84     1.84   0.35508
 0.35000    1.84     1.84   0.35647
 0.40000    1.84     1.84   0.35795
 0.45000    1.84     1.84   0.36092
 0.50000    1.84     1.84   0.36327
 0.55000    1.84     1.84   0.36622
 0.60000    1.84     1.84   0.36796
 0.65000    1.84     1.84   0.36958
 0.70000    1.84     1.84   0.36990
 0.75000    1.84     1.84   0.37231
 0.80000    1.84     1.84   0.37512
 0.85000    1.84     1.84   0.37739
 0.90000    1.84     1.84   0.37882
 0.95000    1.84     1.84   0.38160
 1.00000    1.84     1.84   0.38480
 1.05000    1.84     1.84   0.38679
 1.10000    1.84     1.84   0.38911
 1.15000    1.84     1.84   0.39156
 1.20000    1.84     1.84   0.39360
 1.25000    1.84     1.84   0.39432
 1.30000    1.84     1.84   0.39370
 1.35000    1.84     1.84   0.39129
 1.40000    1.84     1.84   0.38625
 1.45000    1.84     1.84   0.37864
 1.50000    1.84     1.84   0.37077
 1.55000    1.84     1.84   0.36321
 1.60000    1.84     1.84   0.35480
 1.65000    1.84     1.84   0.34444
 1.70000    1.84     1.84   0.32980
 1.75000    1.84     1.84   0.31259
 1.80000    1.84     1.84   0.29345
 1.85000    1.84     1.84   0.27417
 1.90000    1.84     1.84   0.25438
 1.95000    1.84     1.84   0.23507
 2.00000    1.84     1.84   0.21651
 2.05000    1.84     1.84   0.19888
 2.10000    1.84     1.84   0.18259
 2.15000    1.84     1.84   0.16708
 2.20000    1.84     1.84   0.15307
 2.25000    1.84     1.84   0.14000
 2.30000    1.84     1.84   0.12888
 2.35000    1.84     1.84   0.11877
 2.40000    1.84     1.84   0.10976
 2.45000    1.84     1.84   0.10215
 2.50000    1.84     1.84   0.09572
 2.55000    1.84     1.84   0.09008
 2.60000    1.84     1.84   0.08530
 2.65000    1.84     1.84   0.08113
 2.70000    1.84     1.84   0.07754
 2.75000    1.84     1.84   0.07472
 2.80000    1.84     1.84   0.07212
 2.85000    1.84     1.84   0.06985
 2.90000    1.84     1.84   0.06847
 2.95000    1.84     1.84   0.06703
 3.00000    1.84     1.84   0.06619
 3.05000    1.84     1.84   0.06536
 3.10000    1.84     1.84   0.06485
 3.15000    1.84     1.84   0.06449
 3.20000    1.84     1.84   0.06428
 3.25000    1.84     1.84   0.06441
 3.30000    1.84     1.84   0.06484
 3.35000    1.84     1.84   0.06515
 3.40000    1.84     1.84   0.06597
 3.45000    1.84     1.84   0.06677
 3.50000    1.84     1.84   0.06717
 3.55000    1.84     1.84   0.06833
 3.60000    1.84     1.84   0.06939
 3.65000    1.84     1.84   0.07064
 3.70000    1.84     1.84   0.07179
 3.75000    1.84     1.84   0.07318
 3.80000    1.84     1.84   0.07454
 3.85000    1.84     1.84   0.07603
 3.90000    1.84     1.84   0.07774
 3.95000    1.84     1.84   0.07871
 4.00000    1.84     1.84   0.08039
 4.05000    1.84     1.84   0.08180
 4.10000    1.84     1.84   0.08329
 4.15000    1.84     1.84   0.08491
 4.20000    1.84     1.84   0.08632
 4.25000    1.84     1.84   0.08761
 4.30000    1.84     1.84   0.08883
 4.35000    1.84     1.84   0.09016
 4.40000    1.84     1.84   0.09127
 4.45000    1.84     1.84   0.09258
 4.50000    1.84     1.84   0.09320
 4.55000    1.84     1.84   0.09395
 4.60000    1.84     1.84   0.09457
 4.65000    1.84     1.84   0.09539
 4.70000    1.84     1.84   0.09565
 4.75000    1.84     1.84   0.09618
 4.80000    1.84     1.84   0.09631
 4.85000    1.84     1.84   0.09657
 4.90000    1.84     1.84   0.09652
 4.95000    1.84     1.84   0.09702
 5.00000    1.84     1.84   0.09651
 5.05000    1.84     1.84   0.09666
 5.10000    1.84     1.84   0.09620
 5.15000    1.84     1.84   0.09621
 5.20000    1.84     1.84   0.09599
 5.25000    1.84     1.84   0.09595
 5.30000    1.84     1.84   0.09542
 5.35000    1.84     1.84   0.09497
 5.40000    1.84     1.84   0.09420
 5.45000    1.84     1.84   0.09447
 5.50000    1.84     1.84   0.09391
 5.55000    1.84     1.84   0.09360
 5.60000    1.84     1.84   0.09320
 5.65000    1.84     1.84   0.09272
 5.70000    1.84     1.84   0.09218
 5.75000    1.84     1.84   0.09185
 5.80000    1.84     1.84   0.09165
 5.85000    1.84     1.84   0.09138
 5.90000    1.84     1.84   0.09023
 5.95000    1.84     1.84   0.09032
 6.00000    1.84     1.84   0.08978
 6.05000    1.84     1.84   0.08922
 6.10000    1.84     1.84   0.08904
 6.15000    1.84     1.84   0.08848
 6.20000    1.84     1.84   0.08835
 6.25000    1.84     1.84   0.08741
 6.30000    1.84     1.84   0.08729
 6.35000    1.84     1.84   0.08707
 6.40000    1.84     1.84   0.08651
 6.45000    1.84     1.84   0.08617
 6.50000    1.84     1.84   0.08554
 6.55000    1.84     1.84   0.08509
 6.60000    1.84     1.84   0.08466
 6.65000    1.84     1.84   0.08437
 6.70000    1.84     1.84   0.08392
 6.75000    1.84     1.84   0.08345
 6.80000    1.84     1.84   0.08280
 6.85000    1.84     1.84   0.08257
 6.90000    1.84     1.84   0.08186
 6.95000    1.84     1.84   0.08125
 7.00000    1.84     1.84   0.08131
