 Field[T] Tsmpl[K] Tcntr[K] Signal
 0.00000    1.84     1.87   4.76320
 0.05000    1.84     1.87   4.76280
 0.10000    1.84     1.87   4.75810
 0.15000    1.84     1.87   4.77900
 0.20000    1.84     1.87   4.78130
 0.25000    1.84     1.87   4.77700
 0.30000    1.84     1.87   4.77120
 0.35000    1.84     1.87   4.76870
 0.40000    1.84     1.87   4.76330
 0.45000    1.84     1.87   4.75940
 0.50000    1.84     1.86   4.75990
 0.55000    1.84     1.86   4.75290
 0.60000    1.84     1.86   4.75780
 0.65000    1.84     1.86   4.76080
 0.70000    1.84     1.86   4.78380
 0.75000    1.84     1.86   4.80580
 0.80000    1.84     1.86   4.81900
 0.85000    1.84     1.86   4.85170
 0.90000    1.84     1.86   4.88560
 0.95000    1.84     1.86   4.91240
 1.00000    1.84     1.86   4.92350
 1.05000    1.84     1.86   4.94570
 1.10000    1.84     1.86   4.99450
 1.15000    1.84     1.86   5.00010
 1.20000    1.84     1.86   4.91420
 1.25000    1.84     1.86   4.75640
 1.30000    1.84     1.86   4.60000
 1.35000    1.84     1.86   4.50250
 1.40000    1.84     1.86   4.41770
 1.45000    1.84     1.86   4.32040
 1.50000    1.84     1.86   4.17360
 1.55000    1.84     1.86   4.00240
 1.60000    1.84     1.86   3.83370
 1.65000    1.84     1.86   3.66800
 1.70000    1.84     1.86   3.49340
 1.75000    1.84     1.86   3.33390
 1.80000    1.84     1.86   3.17650
 1.85000    1.84     1.86   2.99830
 1.90000    1.84     1.86   2.81190
 1.95000    1.84     1.86   2.63200
 2.00000    1.84     1.86   2.45520
 2.05000    1.84     1.86   2.28910
 2.10000    1.84     1.87   2.14590
 2.15000    1.84     1.87   2.00940
 2.20000    1.84     1.87   1.89330
 2.25000    1.84     1.87   1.78870
 2.30000    1.84     1.87   1.70580
 2.35000    1.84     1.87   1.63520
 2.40000    1.84     1.87   1.57550
 2.45000    1.84     1.87   1.52710
 2.50000    1.84     1.87   1.48520
 2.55000    1.84     1.87   1.45100
 2.60000    1.84     1.87   1.42640
 2.65000    1.84     1.87   1.40770
 2.70000    1.84     1.87   1.38800
 2.75000    1.84     1.87   1.37210
 2.80000    1.84     1.87   1.35650
 2.85000    1.84     1.87   1.34230
 2.90000    1.84     1.87   1.33350
 2.95000    1.84     1.88   1.32300
 3.00000    1.84     1.88   1.31250
 3.05000    1.84     1.88   1.30620
 3.10000    1.85     1.88   1.30200
 3.15000    1.85     1.88   1.28750
 3.20000    1.85     1.88   1.27280
 3.25000    1.85     1.88   1.25500
 3.30000    1.85     1.88   1.24360
 3.35000    1.85     1.88   1.22170
 3.40000    1.85     1.88   1.20190
 3.45000    1.85     1.88   1.18470
 3.50000    1.85     1.88   1.16040
 3.55000    1.85     1.88   1.13890
 3.60000    1.85     1.88   1.11670
 3.65000    1.85     1.88   1.09250
 3.70000    1.85     1.88   1.06850
 3.75000    1.85     1.88   1.04990
 3.80000    1.85     1.88   1.02730
 3.85000    1.85     1.89   1.00440
 3.90000    1.85     1.89   0.97770
 3.95000    1.85     1.89   0.95440
 4.00000    1.85     1.89   0.93590
 4.05000    1.85     1.89   0.91930
 4.10000    1.86     1.89   0.89820
 4.15000    1.86     1.89   0.87820
 4.20000    1.86     1.89   0.86130
 4.25000    1.86     1.89   0.84810
 4.30000    1.86     1.89   0.83230
 4.35000    1.86     1.89   0.82020
 4.40000    1.86     1.89   0.80500
 4.45000    1.86     1.89   0.79260
 4.50000    1.86     1.89   0.77790
 4.55000    1.86     1.89   0.76950
 4.60000    1.86     1.90   0.76310
 4.65000    1.86     1.90   0.75330
 4.70000    1.86     1.90   0.74380
 4.75000    1.86     1.90   0.73560
 4.80000    1.86     1.90   0.72920
 4.85000    1.86     1.90   0.72290
 4.90000    1.86     1.90   0.71510
 4.95000    1.86     1.90   0.71290
 5.00000    1.86     1.90   0.70800
 5.05000    1.86     1.90   0.69990
 5.10000    1.86     1.90   0.69830
 5.15000    1.86     1.90   0.69390
 5.20000    1.87     1.90   0.69300
 5.25000    1.87     1.90   0.69020
 5.30000    1.87     1.90   0.68570
 5.35000    1.87     1.91   0.68870
 5.40000    1.87     1.91   0.68520
 5.45000    1.87     1.91   0.68250
 5.50000    1.87     1.91   0.68490
 5.55000    1.87     1.91   0.68490
 5.60000    1.87     1.91   0.68530
 5.65000    1.87     1.92   0.68660
 5.70000    1.87     1.92   0.68640
 5.75000    1.87     1.92   0.68580
 5.80000    1.87     1.92   0.68550
 5.85000    1.87     1.92   0.68550
 5.90000    1.88     1.92   0.68620
 5.95000    1.88     1.92   0.68730
 6.00000    1.88     1.92   0.69050
 6.05000    1.88     1.92   0.68760
 6.10000    1.88     1.92   0.68810
 6.15000    1.88     1.92   0.69080
 6.20000    1.88     1.92   0.69390
 6.25000    1.88     1.93   0.69560
 6.30000    1.88     1.93   0.69840
 6.35000    1.88     1.93   0.69890
 6.40000    1.88     1.93   0.70010
 6.45000    1.88     1.93   0.70090
 6.50000    1.88     1.93   0.70320
 6.55000    1.89     1.93   0.70900
 6.60000    1.89     1.93   0.70890
 6.65000    1.89     1.93   0.71030
 6.70000    1.89     1.93   0.71100
 6.75000    1.89     1.93   0.71460
 6.80000    1.89     1.93   0.72000
 6.85000    1.89     1.93   0.71610
 6.90000    1.89     1.93   0.72500
 6.95000    1.89     1.93   0.72470
 7.00000    1.89     1.93   0.73290
