 Field[T] Tsmpl[K] Tcntr[K] Signal
 7.00000    1.88     1.93   0.96340
 6.95000    1.88     1.93   0.95160
 6.90000    1.88     1.93   0.94620
 6.85000    1.88     1.93   0.94690
 6.80000    1.88     1.92   0.95060
 6.75000    1.88     1.92   0.94880
 6.70000    1.88     1.91   0.93210
 6.65000    1.87     1.91   0.93940
 6.60000    1.87     1.90   0.92590
 6.55000    1.86     1.90   0.92280
 6.50000    1.86     1.89   0.91340
 6.45000    1.85     1.89   0.91520
 6.40000    1.85     1.88   0.91550
 6.35000    0.00     1.88   0.91220
 6.30000    1.84     1.88   0.90730
 6.25000    1.84     1.87   0.90460
 6.20000    1.83     1.87   0.89860
 6.15000    1.83     1.87   0.89990
 6.10000    1.83     1.86   0.89100
 6.05000    1.83     1.86   0.88450
 6.00000    1.82     1.86   0.88640
 5.95000    1.82     1.85   0.88150
 5.90000    1.82     1.85   0.88720
 5.85000    1.82     1.85   0.87450
 5.80000    1.81     1.85   0.87870
 5.75000    1.81     1.84   0.87240
 5.70000    1.81     1.84   0.87430
 5.65000    1.80     1.84   0.87310
 5.60000    1.80     1.84   0.86890
 5.55000    1.80     1.83   0.86430
 5.50000    1.80     1.83   0.87020
 5.45000    1.80     1.83   0.87130
 5.40000    1.79     1.83   0.86270
 5.35000    1.79     1.83   0.87180
 5.30000    1.79     1.83   0.87320
 5.25000    1.79     1.82   0.88030
 5.20000    1.79     1.82   0.88060
 5.15000    1.79     1.82   0.88780
 5.10000    1.79     1.82   0.88790
 5.05000    1.79     1.82   0.89350
 5.00000    1.78     1.82   0.89430
 4.95000    1.78     1.82   0.89580
 4.90000    1.78     1.81   0.90680
 4.85000    1.78     1.81   0.91280
 4.80000    1.78     1.81   0.92010
 4.75000    1.78     1.81   0.92670
 4.70000    1.78     1.81   0.94290
 4.65000    1.78     1.81   0.95070
 4.60000    1.78     1.81   0.95940
 4.55000    1.78     1.81   0.97390
 4.50000    1.78     1.81   0.98280
 4.45000    1.77     1.81   0.99660
 4.40000    1.77     1.81   1.01020
 4.35000    1.77     1.80   1.02430
 4.30000    1.77     1.80   1.03870
 4.25000    1.77     1.80   1.06040
 4.20000    1.77     1.80   1.07880
 4.15000    1.77     1.80   1.09860
 4.10000    1.77     1.80   1.12670
 4.05000    1.77     1.80   1.14850
 4.00000    1.77     1.80   1.17530
 3.95000    1.77     1.80   1.19080
 3.90000    1.77     1.80   1.22180
 3.85000    1.77     1.80   1.25000
 3.80000    1.77     1.80   1.27830
 3.75000    1.77     1.80   1.30320
 3.70000    1.77     1.80   1.33600
 3.65000    1.77     1.80   1.37280
 3.60000    1.77     1.80   1.40410
 3.55000    1.77     1.80   1.43870
 3.50000    1.77     1.80   1.46620
 3.45000    1.77     1.80   1.50080
 3.40000    1.77     1.80   1.53160
 3.35000    1.77     1.80   1.55170
 3.30000    1.77     1.80   1.57950
 3.25000    1.77     1.80   1.60790
 3.20000    1.77     1.79   1.63080
 3.15000    1.77     1.79   1.65160
 3.10000    1.77     1.79   1.67370
 3.05000    1.77     1.79   1.70010
 3.00000    1.77     1.79   1.72230
 2.95000    1.77     1.79   1.75280
 2.90000    1.77     1.79   1.79210
 2.85000    0.00     1.79   1.81960
 2.80000    1.77     1.79   1.84800
 2.75000    1.77     1.79   1.88660
 2.70000    1.77     1.79   1.93860
 2.65000    1.77     1.79   1.99750
 2.60000    1.77     1.79   2.06170
 2.55000    1.77     1.79   2.13410
 2.50000    1.77     1.79   2.24420
 2.45000    1.77     1.79   2.33760
 2.40000    1.77     1.79   2.48190
 2.35000    1.77     1.79   2.63930
 2.30000    1.77     1.79   2.82320
 2.25000    1.77     1.79   3.03090
 2.20000    1.76     1.79   3.28020
 2.15000    1.76     1.79   3.54720
 2.10000    1.76     1.78   3.84030
 2.05000    1.76     1.78   4.18840
 2.00000    1.76     1.78   4.59950
 1.95000    1.76     1.78   4.99060
 1.90000    1.76     1.78   5.41600
 1.85000    1.76     1.78   5.84700
 1.80000    1.76     1.78   6.23030
 1.75000    1.76     1.78   6.61300
 1.70000    1.76     1.78   6.93400
 1.65000    1.76     1.77   7.23690
 1.60000    1.76     1.77   7.50350
 1.55000    1.76     1.77   7.76860
 1.50000    1.76     1.77   8.03800
 1.45000    1.75     1.77   8.32070
 1.40000    1.75     1.77   8.48870
 1.35000    1.75     1.77   8.59890
 1.30000    1.75     1.77   8.71470
 1.25000    1.75     1.77   8.92170
 1.20000    1.75     1.77   9.11220
 1.15000    1.75     1.77   9.29950
 1.10000    1.75     1.77   9.36880
 1.05000    1.75     1.77   9.37550
 1.00000    1.75     1.76   9.37320
 0.95000    1.75     1.76   9.50420
 0.90000    1.75     1.76   9.59940
 0.85000    1.75     1.76   9.68420
 0.80000    1.75     1.76   9.69430
 0.75000    1.75     1.76   9.69310
 0.70000    1.75     1.76   9.69430
 0.65000    1.75     1.76   9.60750
 0.60000    1.75     1.76   9.51570
 0.55000    1.75     1.76   9.37260
 0.50000    1.75     1.76   9.27790
 0.45000    1.75     1.76   9.18630
 0.40000    1.75     1.76   9.10280
 0.35000    1.75     1.76   9.02810
 0.30000    1.74     1.76   9.04380
 0.25000    1.74     1.76   8.93830
 0.20000    1.74     1.76   8.97910
 0.15000    1.74     1.76   8.95900
 0.10000    1.74     1.76   8.93450
 0.05000    1.74     1.76   8.90810
-0.00000    1.74     1.75   9.02920
