 Field[T] Tsmpl[K] Tcntr[K] Signal   Mirror[MM]
 0.00000    4.91     2.98   0.65139  1.2598
 0.05000    4.91     2.99   0.65052  1.2594
 0.10000    4.91     3.01   0.64958  1.2589
 0.15000    4.91     2.99   0.64806  1.2582
 0.20000    4.89     2.99   0.64707  1.2566
 0.25000    4.88     3.00   0.64633  1.2537
 0.30000    4.86     2.98   0.64612  1.2500
 0.35000    4.84     3.00   0.64804  1.2480
 0.40000    4.83     3.00   0.65049  1.2467
 0.45000    4.81     2.99   0.65237  1.2463
 0.50000    4.79     2.99   0.65410  1.2467
 0.55000    4.78     2.98   0.65544  1.2474
 0.60000    4.76     2.98   0.65654  1.2472
 0.65000    4.75     3.01   0.65634  1.2499
 0.70000    4.74     2.98   0.65710  1.2491
 0.75000    4.73     2.98   0.65759  1.2500
 0.80000    4.72     2.98   0.65770  1.2508
 0.85000    4.71     3.00   0.65815  1.2514
 0.90000    4.70     2.98   0.65770  1.2522
 0.95000    4.70     2.98   0.65811  1.2525
 1.00000    4.69     2.99   0.65779  1.2532
 1.05000    4.69     2.98   0.65742  1.2541
 1.10000    4.68     2.99   0.65740  1.2537
 1.15000    4.68     2.99   0.65705  1.2547
 1.20000    4.68     2.97   0.65677  1.2551
 1.25000    4.68     2.98   0.65581  1.2555
 1.30000    4.68     2.99   0.65622  1.2552
 1.35000    4.68     2.98   0.65584  1.2555
 1.40000    4.68     3.00   0.65605  1.2554
 1.45000    4.68     2.98   0.65505  1.2572
 1.50000    4.69     2.98   0.65522  1.2563
 1.55000    4.70     2.99   0.65551  1.2564
 1.60000    4.70     2.98   0.65477  1.2569
 1.65000    4.71     2.98   0.65438  1.2573
 1.70000    4.72     2.99   0.65494  1.2577
 1.75000    4.74     2.98   0.65484  1.2567
 1.80000    4.75     2.98   0.65438  1.2567
 1.85000    4.76     2.98   0.65459  1.2572
 1.90000    4.77     3.00   0.65419  1.2573
 1.95000    4.79     2.99   0.65335  1.2573
 2.00000    4.80     2.99   0.65383  1.2577
 2.00000    4.81     2.99   0.65414  1.2574
 1.95000    4.82     2.98   0.65296  1.2577
 1.90000    4.83     3.00   0.65355  1.2569
 1.85000    4.84     2.99   0.65362  1.2567
 1.80000    4.85     3.01   0.65295  1.2563
 1.75000    4.86     3.00   0.65244  1.2576
 1.70000    4.86     2.99   0.65243  1.2564
 1.65000    4.87     3.01   0.65335  1.2564
 1.60000    4.87     3.00   0.65169  1.2572
 1.55000    4.88     3.00   0.65211  1.2569
 1.50000    4.88     3.02   0.65266  1.2555
 1.45000    4.88     3.00   0.65313  1.2556
 1.40000    4.88     3.01   0.65177  1.2553
 1.35000    4.88     3.02   0.65237  1.2556
 1.30000    4.88     3.00   0.65059  1.2571
 1.25000    4.89     3.01   0.65207  1.2557
 1.20000    4.89     3.01   0.65186  1.2546
 1.15000    4.89     3.03   0.65192  1.2545
 1.10000    4.90     3.01   0.65292  1.2526
 1.05000    4.90     3.01   0.65152  1.2534
 1.00000    4.90     3.01   0.65129  1.2525
 0.95000    4.90     3.00   0.65097  1.2518
 0.90000    4.91     3.03   0.65083  1.2510
 0.85000    4.92     3.01   0.65067  1.2502
 0.80000    4.93     3.01   0.64943  1.2495
 0.75000    4.93     3.01   0.64959  1.2492
 0.70000    4.94     3.03   0.64856  1.2485
 0.65000    4.95     3.01   0.64788  1.2477
 0.60000    4.95     3.01   0.64623  1.2470
 0.55000    4.95     3.03   0.64566  1.2458
 0.50000    4.96     3.01   0.64317  1.2452
 0.45000    4.96     3.02   0.64143  1.2445
 0.40000    4.96     3.03   0.63859  1.2457
 0.35000    4.97     3.01   0.63512  1.2463
 0.30000    4.97     3.01   0.63247  1.2484
 0.25000    4.96     3.01   0.63266  1.2514
 0.20000    4.96     3.00   0.63215  1.2547
 0.15000    4.95     3.01   0.63276  1.2566
 0.10000    4.94     2.99   0.63377  1.2570
 0.05000    4.93     3.00   0.63535  1.2574
-0.00000    4.91     3.00   0.63464  1.2570
