 Field[T] Tsmpl[K] Tcntr[K] Signal   Mirror[MM]
 0.00000    5.01     2.98   1.25406  0.8205
 0.05000    4.99     2.98   1.25302  0.8208
 0.10000    4.98     2.98   1.25227  0.8207
 0.15000    4.97     2.97   1.25069  0.8210
 0.20000    4.95     2.99   1.25053  0.8211
 0.25000    4.94     2.99   1.24909  0.8212
 0.30000    4.92     2.98   1.24753  0.8215
 0.35000    4.90     2.98   1.24714  0.8213
 0.40000    4.88     3.00   1.24590  0.8212
 0.45000    4.87     2.97   1.24317  0.8212
 0.50000    4.86     2.98   1.23988  0.8214
 0.55000    4.84     2.98   1.23636  0.8210
 0.60000    4.83     2.99   1.23154  0.8204
 0.65000    4.83     2.99   1.22822  0.8188
 0.70000    4.83     2.98   1.22936  0.8171
 0.75000    4.82     2.97   1.23362  0.8156
 0.80000    4.81     2.97   1.23790  0.8150
 0.85000    4.79     2.96   1.24139  0.8150
 0.90000    4.78     2.97   1.24283  0.8150
 0.95000    4.77     2.96   1.24531  0.8149
 1.00000    4.75     2.98   1.24676  0.8149
 1.05000    4.74     2.96   1.24886  0.8148
 1.10000    4.73     2.96   1.24979  0.8149
 1.15000    4.72     2.97   1.25216  0.8148
 1.20000    4.72     2.95   1.25335  0.8149
 1.25000    4.71     2.95   1.25404  0.8151
 1.30000    4.70     2.97   1.25620  0.8153
 1.35000    4.70     2.95   1.25759  0.8153
 1.40000    4.70     2.95   1.25759  0.8155
 1.45000    4.71     2.98   1.25861  0.8154
 1.50000    4.72     2.96   1.25831  0.8155
 1.55000    4.73     2.96   1.25919  0.8159
 1.60000    4.73     2.96   1.25991  0.8159
 1.65000    4.74     2.97   1.26036  0.8159
 1.70000    4.74     2.97   1.26052  0.8159
 1.75000    4.75     2.97   1.26085  0.8160
 1.80000    4.75     2.99   1.26059  0.8165
 1.85000    4.76     2.98   1.26254  0.8163
 1.90000    4.77     2.99   1.26156  0.8166
 1.95000    4.79     3.01   1.26242  0.8165
 2.00000    4.80     2.99   1.26314  0.8165
 2.05000    4.81     3.00   1.26212  0.8168
 2.10000    4.81     2.99   1.26292  0.8168
 2.15000    4.81     2.99   1.26337  0.8168
 2.20000    4.82     3.00   1.26376  0.8169
 2.25000    4.82     2.99   1.26288  0.8171
 2.30000    4.83     3.00   1.26383  0.8174
 2.35000    4.85     3.00   1.26434  0.8173
 2.40000    4.86     3.00   1.26417  0.8172
 2.45000    4.87     3.00   1.26454  0.8172
 2.50000    4.89     3.01   1.26424  0.8173
 2.55000    4.89     3.00   1.26396  0.8174
 2.60000    4.91     3.00   1.26383  0.8175
 2.65000    4.92     2.99   1.26426  0.8175
 2.70000    4.94     3.00   1.26489  0.8177
 2.75000    4.95     3.01   1.26474  0.8175
 2.80000    4.97     3.01   1.26420  0.8176
 2.85000    4.98     3.01   1.26387  0.8176
 2.90000    4.98     3.02   1.26361  0.8179
 2.95000    4.99     3.02   1.26450  0.8178
 3.00000    4.99     3.01   1.26373  0.8183
 3.00000    4.99     3.03   1.26379  0.8183
 2.95000    4.99     3.02   1.26369  0.8180
 2.90000    5.00     3.04   1.26419  0.8182
 2.85000    5.01     3.03   1.26417  0.8178
 2.80000    5.01     3.02   1.26409  0.8180
 2.75000    5.02     3.04   1.26551  0.8175
 2.70000    5.02     3.04   1.26522  0.8177
 2.65000    5.02     3.04   1.26596  0.8176
 2.60000    5.02     3.03   1.26529  0.8177
 2.55000    5.03     3.03   1.26433  0.8174
 2.50000    5.02     3.03   1.26525  0.8173
 2.45000    5.03     3.05   1.26518  0.8174
 2.40000    5.05     3.04   1.26508  0.8174
 2.35000    5.06     3.04   1.26604  0.8171
 2.30000    5.07     3.05   1.26533  0.8172
 2.25000    5.09     3.06   1.26494  0.8168
 2.20000    5.11     3.04   1.26533  0.8168
 2.15000    5.13     3.06   1.26443  0.8170
 2.10000    5.15     3.05   1.26517  0.8169
 2.05000    5.17     3.05   1.26545  0.8167
 2.00000    5.18     3.05   1.26441  0.8167
 1.95000    5.20     3.05   1.26379  0.8167
 1.90000    5.20     3.04   1.26365  0.8166
 1.85000    5.22     3.05   1.26388  0.8160
 1.80000    5.22     3.03   1.26362  0.8161
 1.75000    5.23     3.03   1.26340  0.8161
 1.70000    5.23     3.02   1.26345  0.8162
 1.65000    5.22     3.02   1.26302  0.8160
 1.60000    5.20     3.03   1.26345  0.8159
 1.55000    5.19     3.03   1.26308  0.8158
 1.50000    5.17     3.04   1.26272  0.8158
 1.45000    5.17     3.04   1.26303  0.8156
 1.40000    5.16     3.03   1.26120  0.8158
 1.35000    5.15     3.03   1.26022  0.8157
 1.30000    5.14     3.01   1.25860  0.8156
 1.25000    5.13     3.01   1.25815  0.8152
 1.20000    5.12     3.03   1.25681  0.8154
 1.15000    5.12     3.01   1.25538  0.8153
 1.10000    5.12     3.01   1.25438  0.8152
 1.05000    5.11     3.03   1.25300  0.8154
 1.00000    5.12     3.01   1.25204  0.8152
 0.95000    5.12     3.01   1.25079  0.8153
 0.90000    5.12     3.00   1.24924  0.8153
 0.85000    5.12     3.02   1.24749  0.8153
 0.80000    5.12     3.01   1.24481  0.8154
 0.75000    5.12     3.00   1.24117  0.8162
 0.70000    5.12     3.02   1.23692  0.8171
 0.65000    5.13     3.01   1.23464  0.8188
 0.60000    5.13     3.00   1.23732  0.8203
 0.55000    5.13     3.00   1.24191  0.8211
 0.50000    5.13     3.00   1.24366  0.8218
 0.45000    5.14     3.01   1.24669  0.8216
 0.40000    5.14     3.00   1.24784  0.8214
 0.35000    5.15     3.00   1.24780  0.8215
 0.30000    5.15     3.00   1.24953  0.8215
 0.25000    5.16     3.00   1.25091  0.8213
 0.20000    5.16     3.01   1.24994  0.8211
 0.15000    5.16     2.99   1.25035  0.8212
 0.10000    5.16     3.00   1.25089  0.8209
 0.05000    5.16     3.00   1.25242  0.8207
-0.00000    5.16     2.99   1.25287  0.8206
