 Field[T] Tsmpl[K] Tcntr[K] Signal   Mirror[MM]
 0.00000    5.18     2.99   1.75039  0.9423
 0.05000    5.18     3.00   1.75150  0.9425
 0.10000    5.17     2.99   1.75240  0.9425
 0.15000    5.17     3.00   1.75351  0.9423
 0.20000    5.17     3.00   1.75193  0.9422
 0.25000    5.17     3.00   1.74969  0.9424
 0.30000    5.18     2.99   1.74845  0.9422
 0.35000    5.18     2.99   1.74658  0.9421
 0.40000    5.18     3.00   1.74486  0.9421
 0.45000    5.19     3.00   1.74237  0.9420
 0.50000    5.19     3.01   1.73820  0.9416
 0.55000    5.20     3.00   1.73515  0.9403
 0.60000    5.20     2.99   1.73306  0.9388
 0.65000    5.20     3.00   1.73624  0.9370
 0.70000    5.20     2.99   1.74472  0.9363
 0.75000    5.20     3.01   1.75214  0.9364
 0.80000    5.21     2.99   1.75652  0.9364
 0.85000    5.21     2.99   1.76049  0.9366
 0.90000    5.20     2.99   1.76367  0.9368
 0.95000    5.20     2.99   1.76651  0.9373
 1.00000    5.20     2.99   1.76997  0.9375
 1.05000    5.20     3.00   1.76981  0.9377
 1.10000    5.20     2.98   1.77189  0.9379
 1.15000    5.20     2.97   1.77279  0.9380
 1.20000    5.19     2.98   1.77267  0.9383
 1.25000    5.19     2.99   1.77396  0.9386
 1.30000    5.19     2.98   1.77508  0.9388
 1.35000    5.19     2.98   1.77439  0.9389
 1.40000    5.19     2.98   1.77545  0.9390
 1.45000    5.19     2.98   1.77744  0.9390
 1.50000    5.20     3.00   1.77945  0.9395
 1.55000    5.20     2.98   1.77915  0.9396
 1.60000    5.21     2.98   1.77971  0.9396
 1.65000    5.22     2.98   1.77853  0.9399
 1.70000    5.22     2.99   1.77887  0.9404
 1.75000    5.22     3.00   1.77940  0.9404
 1.80000    5.23     2.99   1.77916  0.9405
 1.85000    5.22     2.99   1.77833  0.9406
 1.90000    5.22     2.99   1.77917  0.9404
 1.95000    5.21     3.01   1.77791  0.9408
 2.00000    5.21     2.99   1.78039  0.9407
 2.05000    5.21     2.99   1.77895  0.9410
 2.10000    5.20     3.00   1.77902  0.9407
 2.15000    5.20     3.00   1.77786  0.9408
 2.20000    5.21     3.00   1.77795  0.9410
 2.25000    5.21     3.01   1.77869  0.9410
 2.30000    5.22     3.00   1.77813  0.9412
 2.35000    5.24     3.00   1.77858  0.9411
 2.40000    5.25     3.02   1.77861  0.9411
 2.45000    5.27     3.00   1.77789  0.9413
 2.50000    5.28     3.00   1.77734  0.9413
 2.55000    5.29     3.00   1.77887  0.9414
 2.60000    5.29     3.00   1.77771  0.9413
 2.65000    5.29     3.01   1.77726  0.9413
 2.70000    5.29     3.00   1.77698  0.9414
 2.75000    5.28     3.00   1.77713  0.9413
 2.80000    5.28     3.01   1.77628  0.9414
 2.85000    5.28     3.00   1.77750  0.9413
 2.90000    5.29     3.01   1.77631  0.9414
 2.95000    5.30     3.02   1.77700  0.9414
 3.00000    5.32     3.01   1.77695  0.9413
 3.00000    5.33     3.00   1.77714  0.9413
 2.95000    5.34     3.00   1.77688  0.9415
 2.90000    5.35     3.01   1.77666  0.9414
 2.85000    5.36     3.02   1.77690  0.9413
 2.80000    5.37     3.00   1.77832  0.9416
 2.75000    5.38     3.01   1.77873  0.9415
 2.70000    5.39     3.01   1.77752  0.9413
 2.65000    5.39     3.01   1.77732  0.9413
 2.60000    5.40     3.02   1.77905  0.9412
 2.55000    5.40     3.01   1.77954  0.9412
 2.50000    5.40     3.01   1.78098  0.9408
 2.45000    5.40     3.01   1.78005  0.9410
 2.40000    5.39     3.00   1.78014  0.9412
 2.35000    5.38     3.02   1.77780  0.9412
 2.30000    5.39     3.01   1.77971  0.9409
 2.25000    5.39     3.01   1.77987  0.9408
 2.20000    5.39     3.01   1.77995  0.9410
 2.15000    5.39     3.01   1.77953  0.9405
 2.10000    5.38     3.00   1.77862  0.9407
 2.05000    5.38     3.02   1.77910  0.9407
 2.00000    5.38     3.01   1.77999  0.9403
 1.95000    5.38     3.01   1.77914  0.9403
 1.90000    5.38     3.01   1.78040  0.9401
 1.85000    5.38     3.01   1.77978  0.9403
 1.80000    5.38     3.01   1.77995  0.9402
 1.75000    5.39     3.01   1.77969  0.9398
 1.70000    5.39     3.00   1.78051  0.9397
 1.65000    5.39     3.01   1.78033  0.9396
 1.60000    5.40     3.01   1.78070  0.9396
 1.55000    5.40     3.01   1.78022  0.9395
 1.50000    5.39     3.01   1.78097  0.9394
 1.45000    5.39     3.00   1.77981  0.9393
 1.40000    5.39     3.01   1.77921  0.9387
 1.35000    5.39     3.01   1.77887  0.9385
 1.30000    5.39     3.00   1.77748  0.9385
 1.25000    5.39     3.00   1.77546  0.9385
 1.20000    5.39     3.00   1.77533  0.9384
 1.15000    5.39     3.00   1.77304  0.9380
 1.10000    5.39     3.01   1.77102  0.9378
 1.05000    5.39     3.00   1.77132  0.9373
 1.00000    5.39     3.00   1.76890  0.9371
 0.95000    5.39     3.00   1.76779  0.9372
 0.90000    5.38     3.01   1.76485  0.9370
 0.85000    5.38     3.02   1.76215  0.9365
 0.80000    5.38     3.00   1.75784  0.9363
 0.75000    5.38     3.00   1.75347  0.9363
 0.70000    5.38     3.00   1.74676  0.9365
 0.65000    5.37     3.01   1.73890  0.9373
 0.60000    5.37     3.00   1.73325  0.9390
 0.55000    5.37     3.00   1.73519  0.9406
 0.50000    5.36     3.00   1.73901  0.9416
 0.45000    5.35     3.00   1.74199  0.9423
 0.40000    5.35     3.00   1.74483  0.9428
 0.35000    5.34     3.00   1.74754  0.9427
 0.30000    5.34     3.00   1.74964  0.9427
 0.25000    5.34     3.00   1.75246  0.9426
 0.20000    5.35     3.01   1.75338  0.9427
 0.15000    5.35     2.99   1.75412  0.9428
 0.10000    5.35     2.99   1.75485  0.9428
 0.05000    5.34     2.99   1.75549  0.9427
-0.00000    5.34     3.00   1.75489  0.9427
