 Field[T] Tsmpl[K] Tcntr[K] Signal   Mirror[MM]
 0.00000    4.88     2.95   0.63291  0.8297
 0.05000    4.86     2.96   0.63309  0.8297
 0.10000    4.84     2.96   0.63324  0.8297
 0.15000    4.83     2.97   0.63304  0.8299
 0.20000    4.81     2.96   0.63355  0.8297
 0.25000    4.80     2.96   0.63354  0.8297
 0.30000    4.80     2.97   0.63278  0.8296
 0.35000    4.80     2.97   0.63225  0.8299
 0.40000    4.80     2.97   0.63214  0.8299
 0.45000    4.80     2.95   0.63106  0.8299
 0.50000    4.79     2.97   0.63027  0.8298
 0.55000    4.80     2.98   0.62837  0.8295
 0.60000    4.80     2.97   0.62633  0.8291
 0.65000    4.80     2.97   0.62435  0.8283
 0.70000    4.80     2.98   0.62333  0.8264
 0.75000    4.80     2.97   0.62511  0.8239
 0.80000    4.80     2.97   0.62862  0.8230
 0.85000    4.80     2.97   0.63178  0.8226
 0.90000    4.80     2.97   0.63389  0.8230
 0.95000    4.80     2.97   0.63571  0.8229
 1.00000    4.79     2.95   0.63702  0.8229
 1.05000    4.78     2.95   0.63813  0.8233
 1.10000    4.76     2.95   0.57714  0.8234
 1.15000    4.76     2.97   0.64005  0.8234
 1.20000    4.75     2.96   0.64082  0.8236
 1.25000    4.74     2.95   0.64177  0.8235
 1.30000    4.74     2.97   0.64293  0.8236
 1.35000    4.74     2.95   0.64305  0.8240
 1.40000    4.73     2.96   0.64436  0.8241
 1.45000    4.72     2.96   0.64467  0.8242
 1.50000    4.72     2.97   0.64488  0.8243
 1.55000    4.71     2.96   0.64532  0.8245
 1.60000    4.70     2.96   0.64612  0.8246
 1.65000    4.69     2.97   0.64610  0.8250
 1.70000    4.68     2.96   0.64673  0.8250
 1.75000    4.68     2.98   0.64667  0.8250
 1.80000    4.67     2.97   0.64730  0.8252
 1.85000    4.67     2.97   0.64737  0.8254
 1.90000    4.67     2.99   0.64768  0.8255
 1.95000    4.67     2.98   0.64798  0.8253
 2.00000    4.68     2.99   0.64749  0.8256
 2.05000    4.70     2.99   0.64745  0.8258
 2.10000    4.69     2.99   0.64834  0.8256
 2.15000    4.70     2.99   0.64840  0.8259
 2.20000    4.72     3.00   0.64871  0.8260
 2.25000    4.72     3.00   0.64857  0.8261
 2.30000    4.72     2.99   0.64968  0.8260
 2.35000    4.73     3.02   0.64943  0.8261
 2.40000    4.74     3.00   0.64895  0.8265
 2.45000    4.76     2.99   0.64913  0.8261
 2.50000    4.77     3.00   0.64861  0.8262
 2.55000    4.78     3.00   0.64868  0.8264
 2.60000    4.80     3.01   0.64910  0.8261
 2.65000    4.82     3.01   0.64846  0.8264
 2.70000    4.83     3.00   0.64907  0.8264
 2.75000    4.86     3.01   0.64892  0.8262
 2.80000    4.88     3.01   0.64862  0.8266
 2.85000    4.91     3.00   0.64866  0.8266
 2.90000    4.94     3.02   0.64874  0.8268
 2.95000    4.97     3.02   0.64876  0.8267
 3.00000    5.00     3.03   0.64877  0.8268
 3.00000    5.01     3.02   0.64894  0.8268
 2.95000    5.03     3.04   0.64930  0.8267
 2.90000    5.06     3.02   0.64910  0.8267
 2.85000    5.06     3.03   0.64912  0.8267
 2.80000    5.08     3.02   0.64916  0.8267
 2.75000    5.11     3.06   0.64915  0.8265
 2.70000    5.12     3.02   0.64943  0.8266
 2.65000    5.13     3.04   0.64951  0.8267
 2.60000    5.14     3.03   0.64968  0.8262
 2.55000    5.15     3.04   0.64978  0.8261
 2.50000    5.16     3.04   0.64944  0.8263
 2.45000    5.18     3.04   0.64948  0.8260
 2.40000    5.19     3.04   0.64949  0.8260
 2.35000    5.20     3.03   0.64977  0.8260
 2.30000    5.21     3.03   0.64993  0.8259
 2.25000    5.23     3.03   0.64986  0.8259
 2.20000    5.25     3.04   0.64991  0.8259
 2.15000    5.27     3.03   0.65023  0.8259
 2.10000    5.28     3.04   0.64987  0.8257
 2.05000    5.30     3.07   0.65012  0.8257
 2.00000    5.31     3.05   0.64979  0.8258
 1.95000    5.32     3.04   0.64973  0.8256
 1.90000    5.34     3.05   0.65007  0.8254
 1.85000    5.34     3.04   0.65016  0.8252
 1.80000    5.35     3.04   0.64988  0.8251
 1.75000    5.36     3.04   0.64937  0.8250
 1.70000    5.36     3.03   0.64973  0.8249
 1.65000    5.36     3.04   0.64998  0.8248
 1.60000    5.36     3.02   0.64917  0.8246
 1.55000    5.36     3.02   0.64887  0.8244
 1.50000    5.35     3.00   0.64871  0.8241
 1.45000    5.34     3.02   0.64801  0.8240
 1.40000    5.34     3.02   0.64749  0.8240
 1.35000    5.33     3.01   0.64702  0.8242
 1.30000    5.32     3.01   0.64627  0.8238
 1.25000    5.31     3.01   0.64600  0.8236
 1.20000    5.31     3.01   0.64538  0.8235
 1.15000    5.30     3.00   0.64425  0.8233
 1.10000    5.30     3.01   0.64377  0.8232
 1.05000    5.29     3.01   0.64314  0.8231
 1.00000    5.29     3.00   0.64184  0.8232
 0.95000    5.29     3.00   0.64091  0.8230
 0.90000    5.29     3.00   0.63926  0.8228
 0.85000    5.29     3.01   0.63698  0.8231
 0.80000    5.29     3.00   0.63457  0.8233
 0.75000    5.30     2.98   0.63122  0.8240
 0.70000    5.29     3.01   0.62972  0.8257
 0.65000    5.30     3.00   0.63025  0.8276
 0.60000    5.30     3.00   0.63249  0.8289
 0.55000    5.31     3.02   0.63481  0.8292
 0.50000    5.31     2.98   0.63648  0.8295
 0.45000    5.31     3.00   0.63752  0.8298
 0.40000    5.31     3.00   0.63835  0.8297
 0.35000    5.31     3.02   0.63913  0.8296
 0.30000    5.32     3.01   0.64014  0.8296
 0.25000    5.32     2.98   0.64044  0.8297
 0.20000    5.31     3.00   0.64098  0.8297
 0.15000    5.31     2.99   0.64167  0.8293
 0.10000    5.30     3.01   0.64145  0.8294
 0.05000    5.30     2.99   0.64197  0.8294
-0.00000    5.30     3.01   0.64226  0.8295
