 Field[T] Tsmpl[K] Tcntr[K] Signal   Mirror[MM]
 0.00000    5.02     2.99   0.64333  0.6889
 0.05000    5.02     2.99   0.64275  0.6895
 0.10000    5.01     2.99   0.64263  0.6891
 0.15000    5.01     2.98   0.64295  0.6895
 0.20000    5.01     2.98   0.64244  0.6898
 0.25000    5.00     2.99   0.64274  0.6895
 0.30000    5.00     2.99   0.64229  0.6894
 0.35000    5.00     2.98   0.64212  0.6892
 0.40000    4.99     2.99   0.64145  0.6892
 0.45000    4.99     2.99   0.64041  0.6891
 0.50000    4.97     2.98   0.63937  0.6894
 0.55000    4.97     2.98   0.63861  0.6894
 0.60000    4.95     2.98   0.63730  0.6895
 0.65000    4.94     2.98   0.63541  0.6896
 0.70000    4.93     2.98   0.63320  0.6889
 0.75000    4.92     2.99   0.63121  0.6881
 0.80000    4.91     2.98   0.62874  0.6864
 0.85000    4.90     2.98   0.62974  0.6844
 0.90000    4.89     2.99   0.63336  0.6833
 0.95000    4.89     2.99   0.63602  0.6834
 1.00000    4.88     2.98   0.63858  0.6835
 1.05000    4.88     2.98   0.64084  0.6832
 1.10000    4.88     2.99   0.64231  0.6828
 1.15000    4.88     2.99   0.64371  0.6830
 1.20000    4.88     2.99   0.64484  0.6830
 1.25000    4.88     2.99   0.64593  0.6831
 1.30000    4.88     2.99   0.64678  0.6831
 1.35000    4.89     2.99   0.64755  0.6829
 1.40000    4.89     2.99   0.64777  0.6831
 1.45000    4.89     2.99   0.64853  0.6833
 1.50000    4.90     2.99   0.64918  0.6836
 1.55000    4.91     2.99   0.65004  0.6838
 1.60000    4.92     2.99   0.65008  0.6840
 1.65000    4.93     2.99   0.64910  0.6851
 1.70000    4.94     2.99   0.65099  0.6841
 1.75000    4.95     2.99   0.65210  0.6844
 1.80000    4.96     3.00   0.65195  0.6846
 1.85000    4.97     2.99   0.65276  0.6843
 1.90000    4.99     2.99   0.65264  0.6843
 1.95000    5.00     3.00   0.65308  0.6844
 2.00000    5.01     2.99   0.65366  0.6845
 2.05000    5.01     3.00   0.65367  0.6847
 2.10000    5.01     3.00   0.65385  0.6850
 2.15000    5.01     3.00   0.65382  0.6849
 2.20000    5.00     3.00   0.65456  0.6851
 2.25000    4.99     3.00   0.65494  0.6853
 2.30000    4.98     3.01   0.65422  0.6852
 2.35000    4.97     3.00   0.65411  0.6857
 2.40000    4.97     3.01   0.65423  0.6859
 2.45000    4.96     3.01   0.65463  0.6858
 2.50000    4.96     3.00   0.65532  0.6852
 2.55000    4.95     3.01   0.65545  0.6852
 2.60000    4.95     3.01   0.65555  0.6855
 2.65000    4.94     3.00   0.65520  0.6855
 2.70000    4.93     3.01   0.65550  0.6855
 2.75000    4.92     3.01   0.65531  0.6857
 2.80000    4.91     3.01   0.65522  0.6858
 2.85000    4.91     3.01   0.65445  0.6858
 2.90000    4.92     3.00   0.65521  0.6860
 2.95000    4.93     3.01   0.65613  0.6856
 3.00000    4.94     3.01   0.65507  0.6862
 3.00000    4.94     3.01   0.65513  0.6862
 2.95000    4.95     3.01   0.65551  0.6860
 2.90000    4.96     3.01   0.65579  0.6857
 2.85000    4.98     3.01   0.65624  0.6858
 2.80000    4.99     3.02   0.65629  0.6855
 2.75000    5.02     3.01   0.65665  0.6857
 2.70000    5.04     3.02   0.65605  0.6860
 2.65000    5.07     3.04   0.65680  0.6857
 2.60000    5.10     3.03   0.65665  0.6857
 2.55000    5.12     3.03   0.65675  0.6853
 2.50000    5.14     3.04   0.65680  0.6855
 2.45000    5.16     3.04   0.65681  0.6856
 2.40000    5.17     3.04   0.65655  0.6854
 2.35000    5.18     3.04   0.65674  0.6857
 2.30000    5.20     3.04   0.65635  0.6857
 2.25000    5.20     3.03   0.65625  0.6857
 2.20000    5.21     3.04   0.65659  0.6856
 2.15000    5.22     3.04   0.65648  0.6855
 2.10000    5.22     3.04   0.65637  0.6856
 2.05000    5.22     3.03   0.65650  0.6853
 2.00000    5.22     3.03   0.65415  0.6865
 1.95000    5.22     3.03   0.65619  0.6855
 1.90000    5.22     3.03   0.65603  0.6852
 1.85000    5.22     3.03   0.65615  0.6849
 1.80000    5.23     3.02   0.65640  0.6843
 1.75000    5.23     3.02   0.65591  0.6842
 1.70000    5.23     3.02   0.65549  0.6842
 1.65000    5.23     3.02   0.65542  0.6845
 1.60000    5.23     3.02   0.65499  0.6841
 1.55000    5.23     3.01   0.65416  0.6843
 1.50000    5.23     3.01   0.65424  0.6838
 1.45000    5.24     3.01   0.65368  0.6838
 1.40000    5.24     3.02   0.65261  0.6834
 1.35000    5.24     3.01   0.65071  0.6839
 1.30000    5.24     3.01   0.65070  0.6837
 1.25000    5.25     3.01   0.65007  0.6835
 1.20000    5.26     3.01   0.64976  0.6831
 1.15000    5.26     3.01   0.64916  0.6830
 1.10000    5.27     3.01   0.64736  0.6832
 1.05000    5.28     3.01   0.64640  0.6830
 1.00000    5.29     3.01   0.64439  0.6832
 0.95000    5.29     3.01   0.64137  0.6836
 0.90000    5.30     3.01   0.63857  0.6836
 0.85000    5.30     3.00   0.63570  0.6843
 0.80000    5.29     3.01   0.63455  0.6864
 0.75000    5.28     3.00   0.63595  0.6880
 0.70000    5.27     2.99   0.63815  0.6891
 0.65000    5.25     3.00   0.64075  0.6894
 0.60000    5.24     3.00   0.64268  0.6897
 0.55000    5.22     2.99   0.64379  0.6898
 0.50000    5.21     3.00   0.64532  0.6895
 0.45000    5.20     2.99   0.64601  0.6893
 0.40000    5.18     2.99   0.64673  0.6896
 0.35000    5.17     2.99   0.64774  0.6895
 0.30000    5.16     3.00   0.64793  0.6895
 0.25000    5.15     3.00   0.64775  0.6896
 0.20000    5.13     3.00   0.64825  0.6893
 0.15000    5.12     3.00   0.64844  0.6894
 0.10000    5.11     3.00   0.64837  0.6894
 0.05000    5.10     3.00   0.64858  0.6894
-0.00000    5.09     3.00   0.64898  0.6892
