 Field[T] Tsmpl[K] Tcntr[K] Signal   Mirror[MM]
 0.00000    4.84     2.97   1.51046  0.8451
 0.05000    4.83     2.98   1.51119  0.8450
 0.10000    4.82     2.98   1.51067  0.8451
 0.15000    4.82     2.98   1.51055  0.8449
 0.20000    4.82     2.99   1.50860  0.8451
 0.25000    4.82     2.98   1.50890  0.8452
 0.30000    4.81     2.98   1.50796  0.8453
 0.35000    4.81     2.98   1.50797  0.8453
 0.40000    4.80     2.99   1.50691  0.8452
 0.45000    4.81     2.99   1.50508  0.8452
 0.50000    4.81     2.99   1.50368  0.8451
 0.55000    4.80     2.97   1.50031  0.8450
 0.60000    4.80     2.99   1.49636  0.8448
 0.65000    4.80     2.99   1.49046  0.8442
 0.70000    4.80     2.97   1.48658  0.8431
 0.75000    4.80     2.98   1.48252  0.8412
 0.80000    4.79     3.00   1.48821  0.8391
 0.85000    4.79     2.97   1.49871  0.8380
 0.90000    4.79     2.97   1.50737  0.8375
 0.95000    4.78     2.97   1.51365  0.8377
 1.00000    4.78     2.99   1.51748  0.8379
 1.05000    4.78     2.97   1.52081  0.8381
 1.10000    4.77     2.95   1.52443  0.8379
 1.15000    4.75     2.97   1.52644  0.8384
 1.20000    4.75     2.96   1.52905  0.8383
 1.25000    4.75     2.97   1.53181  0.8385
 1.30000    4.74     2.96   1.53455  0.8388
 1.35000    4.74     2.96   1.53549  0.8389
 1.40000    4.73     2.96   1.53680  0.8391
 1.45000    4.72     2.97   1.53809  0.8392
 1.50000    4.72     2.96   1.53949  0.8393
 1.55000    4.71     2.98   1.54108  0.8397
 1.60000    4.72     2.99   1.54200  0.8399
 1.65000    4.72     2.97   1.54254  0.8401
 1.70000    4.72     2.97   1.54493  0.8403
 1.75000    4.72     2.99   1.54488  0.8403
 1.80000    4.72     2.97   1.54598  0.8406
 1.85000    4.72     2.98   1.54658  0.8404
 1.90000    4.73     2.99   1.54707  0.8408
 1.95000    4.73     2.98   1.54772  0.8409
 2.00000    4.74     2.99   1.54926  0.8408
 2.05000    4.74     3.00   1.54941  0.8410
 2.10000    4.75     2.99   1.54920  0.8411
 2.15000    4.75     3.00   1.54957  0.8414
 2.20000    4.76     2.99   1.54963  0.8415
 2.25000    4.77     2.99   1.54758  0.8415
 2.30000    4.78     3.00   1.54659  0.8418
 2.35000    4.80     2.99   1.54773  0.8417
 2.40000    4.82     3.00   1.54834  0.8416
 2.45000    4.84     3.00   1.54955  0.8416
 2.50000    4.85     3.00   1.54837  0.8420
 2.55000    4.86     2.99   1.55077  0.8421
 2.60000    4.86     3.00   1.54994  0.8422
 2.65000    4.87     3.01   1.55136  0.8421
 2.70000    4.87     3.00   1.54968  0.8422
 2.75000    4.88     3.00   1.54987  0.8423
 2.80000    4.89     3.01   1.54973  0.8422
 2.85000    4.90     3.01   1.54942  0.8425
 2.90000    4.91     3.03   1.54948  0.8425
 2.95000    4.93     3.02   1.54844  0.8426
 3.00000    4.94     3.02   1.54816  0.8427
 3.00000    4.94     3.02   1.54838  0.8428
 2.95000    4.95     3.02   1.54820  0.8425
 2.90000    4.96     3.03   1.54791  0.8426
 2.85000    4.96     3.04   1.54850  0.8426
 2.80000    4.97     3.03   1.54889  0.8424
 2.75000    4.97     3.03   1.54931  0.8422
 2.70000    4.97     3.04   1.54824  0.8424
 2.65000    4.97     3.05   1.54925  0.8423
 2.60000    4.97     3.04   1.54914  0.8421
 2.55000    4.96     3.04   1.55025  0.8423
 2.50000    4.96     3.05   1.55020  0.8423
 2.45000    4.97     3.05   1.55088  0.8421
 2.40000    4.97     3.04   1.55081  0.8420
 2.35000    4.98     3.05   1.55091  0.8418
 2.30000    4.99     3.06   1.55010  0.8419
 2.25000    5.00     3.05   1.54942  0.8418
 2.20000    5.01     3.05   1.54842  0.8415
 2.15000    5.01     3.05   1.54835  0.8416
 2.10000    5.02     3.05   1.54897  0.8414
 2.05000    5.02     3.04   1.54858  0.8410
 2.00000    5.02     3.04   1.54871  0.8409
 1.95000    5.02     3.03   1.54841  0.8407
 1.90000    5.02     3.03   1.54840  0.8407
 1.85000    5.01     3.05   1.54766  0.8407
 1.80000    5.02     3.02   1.54817  0.8404
 1.75000    5.02     3.03   1.54705  0.8403
 1.70000    5.02     3.01   1.54708  0.8403
 1.65000    5.02     3.02   1.54527  0.8403
 1.60000    5.02     3.02   1.54533  0.8400
 1.55000    5.03     3.03   1.54482  0.8398
 1.50000    5.03     3.02   1.54378  0.8395
 1.45000    5.03     3.02   1.54164  0.8394
 1.40000    5.03     3.01   1.54048  0.8394
 1.35000    5.02     3.01   1.53882  0.8393
 1.30000    5.02     3.02   1.53650  0.8393
 1.25000    5.03     3.02   1.53541  0.8391
 1.20000    5.03     3.02   1.53445  0.8388
 1.15000    5.04     3.02   1.53245  0.8389
 1.10000    5.06     3.03   1.53083  0.8384
 1.05000    5.07     3.03   1.52998  0.8384
 1.00000    5.10     3.04   1.52686  0.8382
 0.95000    5.12     3.02   1.52222  0.8382
 0.90000    5.14     3.02   1.51658  0.8380
 0.85000    5.15     3.02   1.50980  0.8382
 0.80000    5.17     3.03   1.50199  0.8389
 0.75000    5.18     3.00   1.49694  0.8409
 0.70000    5.19     3.01   1.49745  0.8430
 0.65000    5.21     3.00   1.50455  0.8442
 0.60000    5.22     3.02   1.50928  0.8450
 0.55000    5.23     3.00   1.51468  0.8451
 0.50000    5.24     3.02   1.51733  0.8451
 0.45000    5.26     3.01   1.51984  0.8451
 0.40000    5.27     3.00   1.52229  0.8451
 0.35000    5.27     3.00   1.52380  0.8452
 0.30000    5.28     3.01   1.52538  0.8452
 0.25000    5.28     2.99   1.52677  0.8452
 0.20000    5.28     3.00   1.52727  0.8451
 0.15000    5.27     2.99   1.52918  0.8450
 0.10000    5.27     3.01   1.52899  0.8452
 0.05000    5.26     2.99   1.52917  0.8453
-0.00000    5.25     2.99   1.52959  0.8450
