 Field[T] Tsmpl[K] Tcntr[K] Signal   Mirror[MM]
 0.00000    4.93     2.99   0.74263  0.6996
 0.05000    4.93     2.98   0.74389  0.6999
 0.10000    4.92     2.99   0.74505  0.6998
 0.15000    4.92     2.99   0.74388  0.7008
 0.20000    4.91     2.99   0.74447  0.7012
 0.25000    4.91     3.00   0.74655  0.7010
 0.30000    4.91     2.99   0.74794  0.7000
 0.35000    4.91     2.98   0.74865  0.7000
 0.40000    4.91     2.99   0.74845  0.7000
 0.45000    4.92     2.99   0.74851  0.6999
 0.50000    4.93     2.98   0.74801  0.7001
 0.55000    4.93     2.99   0.74862  0.7002
 0.60000    4.94     2.99   0.74798  0.7004
 0.65000    4.95     2.99   0.74733  0.7004
 0.70000    4.96     2.99   0.74629  0.7003
 0.75000    4.97     2.99   0.74541  0.7003
 0.80000    4.98     2.99   0.74442  0.7004
 0.85000    4.98     3.00   0.74236  0.7002
 0.90000    4.99     2.99   0.73916  0.7001
 0.95000    4.99     2.98   0.73538  0.6998
 1.00000    4.99     2.99   0.73171  0.6987
 1.05000    4.99     2.99   0.73140  0.6969
 1.10000    4.99     2.99   0.73502  0.6952
 1.15000    4.99     2.98   0.73863  0.6950
 1.20000    4.99     2.99   0.74225  0.6948
 1.25000    4.99     2.99   0.74440  0.6950
 1.30000    4.99     2.99   0.74565  0.6951
 1.35000    4.99     2.99   0.74696  0.6953
 1.40000    4.98     2.98   0.74826  0.6950
 1.45000    4.98     2.99   0.74905  0.6953
 1.50000    4.98     2.98   0.75005  0.6952
 1.55000    4.98     2.99   0.75076  0.6954
 1.60000    4.98     2.98   0.75184  0.6952
 1.65000    4.98     2.99   0.75275  0.6955
 1.70000    4.98     2.98   0.75338  0.6955
 1.75000    4.98     2.98   0.75411  0.6956
 1.80000    4.98     2.99   0.75432  0.6959
 1.85000    4.97     2.99   0.75490  0.6956
 1.90000    4.97     2.99   0.75489  0.6960
 1.95000    4.96     2.99   0.75552  0.6960
 2.00000    4.95     3.00   0.75545  0.6962
 2.05000    4.95     2.99   0.75640  0.6965
 2.10000    4.94     3.00   0.75628  0.6963
 2.15000    4.93     2.99   0.75693  0.6963
 2.20000    4.93     3.00   0.75686  0.6963
 2.25000    4.93     3.00   0.75686  0.6964
 2.30000    4.92     3.00   0.75630  0.6964
 2.35000    4.92     3.00   0.75625  0.6966
 2.40000    4.92     3.00   0.75602  0.6968
 2.45000    4.92     3.00   0.75515  0.6971
 2.50000    4.92     3.00   0.75487  0.6972
 2.55000    4.92     2.99   0.75475  0.6971
 2.60000    4.92     3.01   0.75537  0.6971
 2.65000    4.92     3.00   0.75453  0.6973
 2.70000    4.92     3.00   0.75484  0.6973
 2.75000    4.93     3.00   0.75488  0.6973
 2.80000    4.93     3.00   0.75508  0.6973
 2.85000    4.95     3.00   0.75514  0.6975
 2.90000    4.96     3.01   0.75415  0.6978
 2.95000    4.96     3.01   0.75383  0.6981
 3.00000    4.98     3.01   0.75374  0.6980
 3.00000    4.98     3.00   0.75350  0.6979
 2.95000    4.99     3.01   0.75354  0.6978
 2.90000    5.01     3.01   0.75367  0.6977
 2.85000    5.03     3.02   0.75330  0.6976
 2.80000    5.05     3.01   0.75377  0.6973
 2.75000    5.08     3.01   0.75324  0.6973
 2.70000    5.10     3.03   0.75325  0.6973
 2.65000    5.13     3.03   0.75155  0.6973
 2.60000    5.16     3.04   0.75033  0.6981
 2.55000    5.19     3.04   0.75034  0.6976
 2.50000    5.21     3.03   0.75001  0.6971
 2.45000    5.22     3.04   0.74930  0.6971
 2.40000    5.23     3.04   0.74857  0.6967
 2.35000    5.23     3.03   0.74828  0.6968
 2.30000    5.23     3.03   0.74814  0.6965
 2.25000    5.23     3.03   0.74808  0.6964
 2.20000    5.23     3.03   0.74728  0.6965
 2.15000    5.23     3.02   0.74695  0.6966
 2.10000    5.22     3.04   0.74693  0.6964
 2.05000    5.22     3.03   0.74673  0.6962
 2.00000    5.22     3.03   0.74621  0.6962
 1.95000    5.22     3.03   0.74539  0.6963
 1.90000    5.22     3.03   0.74549  0.6963
 1.85000    5.22     3.03   0.74449  0.6960
 1.80000    5.22     3.02   0.74387  0.6959
 1.75000    5.22     3.02   0.74305  0.6958
 1.70000    5.22     3.03   0.74268  0.6957
 1.65000    5.22     3.02   0.74161  0.6957
 1.60000    5.22     3.03   0.74075  0.6955
 1.55000    5.22     3.02   0.73994  0.6954
 1.50000    5.23     3.01   0.73914  0.6956
 1.45000    5.23     3.02   0.73793  0.6957
 1.40000    5.23     3.01   0.73694  0.6955
 1.35000    5.23     3.00   0.73570  0.6956
 1.30000    5.24     3.02   0.73469  0.6957
 1.25000    5.24     3.01   0.73381  0.6954
 1.20000    5.24     3.02   0.73141  0.6956
 1.15000    5.25     3.01   0.72836  0.6955
 1.10000    5.26     3.01   0.72471  0.6960
 1.05000    5.27     3.01   0.72099  0.6970
 1.00000    5.27     3.01   0.72138  0.6989
 0.95000    5.28     3.01   0.72429  0.7000
 0.90000    5.28     3.01   0.72733  0.7006
 0.85000    5.28     3.00   0.73006  0.7009
 0.80000    5.28     3.01   0.73215  0.7009
 0.75000    5.27     3.02   0.73385  0.7013
 0.70000    5.27     3.00   0.73588  0.7010
 0.65000    5.26     3.00   0.73763  0.7008
 0.60000    5.25     3.01   0.73855  0.7009
 0.55000    5.24     3.00   0.73902  0.7006
 0.50000    5.22     3.01   0.73901  0.7006
 0.45000    5.21     3.00   0.73950  0.7004
 0.40000    5.20     3.00   0.73952  0.7008
 0.35000    5.19     2.99   0.74019  0.7007
 0.30000    5.18     3.00   0.74070  0.7006
 0.25000    5.16     3.00   0.74195  0.7005
 0.20000    5.15     3.00   0.74240  0.7003
 0.15000    5.14     3.00   0.74115  0.7001
 0.10000    5.13     3.00   0.74068  0.7004
 0.05000    5.11     3.00   0.74064  0.7002
-0.00000    5.10     3.00   0.74060  0.7003
