 Field[T] Tsmpl[K] Tcntr[K] Signal   Mirror[MM]
 0.00000    5.05     2.97   0.86555  0.9937
 0.02500    5.05     2.98   0.86513  0.9938
 0.05000    5.04     2.96   0.86473  0.9938
 0.07500    5.04     2.98   0.86324  0.9941
 0.10000    5.04     2.97   0.86371  0.9941
 0.12500    5.03     2.99   0.86328  0.9938
 0.15000    5.04     2.99   0.86213  0.9939
 0.17500    5.03     2.98   0.86148  0.9938
 0.20000    5.03     2.98   0.86101  0.9941
 0.22500    5.03     2.97   0.86144  0.9941
 0.25000    5.03     2.98   0.86085  0.9939
 0.27500    5.03     2.98   0.86010  0.9941
 0.30000    5.02     2.97   0.85960  0.9940
 0.32500    5.02     2.98   0.85922  0.9940
 0.35000    5.02     2.98   0.85854  0.9939
 0.37500    5.02     2.99   0.85712  0.9940
 0.40000    5.02     2.97   0.85581  0.9940
 0.42500    5.01     2.98   0.85504  0.9938
 0.45000    5.01     2.98   0.85454  0.9934
 0.47500    5.00     2.99   0.85327  0.9933
 0.50000    5.00     2.98   0.85306  0.9927
 0.52500    4.99     2.97   0.85219  0.9921
 0.55000    4.98     2.97   0.85225  0.9914
 0.57500    4.98     2.98   0.85319  0.9907
 0.60000    4.97     2.97   0.85430  0.9903
 0.62500    4.96     2.97   0.85585  0.9899
 0.65000    4.95     2.98   0.85671  0.9898
 0.67500    4.95     2.98   0.85780  0.9898
 0.70000    4.94     2.99   0.85870  0.9897
 0.72500    4.94     2.98   0.85946  0.9899
 0.75000    4.93     2.97   0.85986  0.9900
 0.77500    4.93     2.97   0.86022  0.9900
 0.80000    4.92     2.97   0.86094  0.9900
 0.82500    4.92     3.00   0.86130  0.9900
 0.85000    4.92     2.97   0.86133  0.9903
 0.87500    4.91     2.97   0.86201  0.9904
 0.90000    4.91     2.97   0.86179  0.9906
 0.92500    4.90     2.95   0.86174  0.9906
 0.95000    4.89     2.96   0.86269  0.9904
 0.97500    4.89     2.95   0.86255  0.9906
 1.00000    4.88     2.95   0.86290  0.9907
 1.00000    4.88     2.93   0.86251  0.9904
 0.97500    4.86     2.92   0.86238  0.9904
 0.95000    4.85     2.93   0.86199  0.9905
 0.92500    4.85     2.95   0.86154  0.9903
 0.90000    4.85     2.93   0.86096  0.9902
 0.87500    4.84     2.94   0.86082  0.9902
 0.85000    4.84     2.94   0.86006  0.9901
 0.82500    4.84     2.95   0.85994  0.9899
 0.80000    4.83     2.94   0.85977  0.9899
 0.77500    4.82     2.94   0.85877  0.9899
 0.75000    4.82     2.95   0.85800  0.9899
 0.72500    4.82     2.94   0.85731  0.9899
 0.70000    4.81     2.97   0.85657  0.9898
 0.67500    4.81     2.96   0.85578  0.9895
 0.65000    4.81     2.96   0.85463  0.9898
 0.62500    4.81     2.96   0.85436  0.9900
 0.60000    4.81     2.97   0.85302  0.9903
 0.57500    4.81     2.98   0.85116  0.9909
 0.55000    4.81     2.98   0.85073  0.9913
 0.52500    4.82     2.97   0.85044  0.9921
 0.50000    4.82     2.97   0.85008  0.9927
 0.47500    4.82     2.97   0.85093  0.9931
 0.45000    4.82     2.97   0.85191  0.9934
 0.42500    4.82     2.98   0.85243  0.9936
 0.40000    4.82     2.98   0.85259  0.9939
 0.37500    4.82     2.99   0.85331  0.9942
 0.35000    4.82     2.98   0.85410  0.9942
 0.32500    4.82     2.99   0.85441  0.9940
 0.30000    4.82     2.98   0.85523  0.9942
 0.27500    4.82     2.99   0.85513  0.9944
 0.25000    4.82     2.99   0.85578  0.9943
 0.22500    4.82     2.99   0.85590  0.9941
 0.20000    4.82     2.99   0.85639  0.9943
 0.17500    4.82     2.99   0.85660  0.9943
 0.15000    4.82     2.99   0.85664  0.9941
 0.12500    4.82     3.00   0.85637  0.9943
 0.10000    4.82     2.99   0.85678  0.9943
 0.07500    4.82     3.00   0.85664  0.9942
 0.05000    4.82     2.99   0.85685  0.9941
 0.02500    4.82     2.99   0.85671  0.9940
-0.00000    4.82     3.00   0.85655  0.9940
