 Field[T] Tsmpl[K] Tcntr[K] Signal   Mirror[MM]
 0.00000    4.96     2.99   1.68529  0.8433
 0.02500    4.96     2.99   1.68439  0.8435
 0.05000    4.96     3.00   1.68403  0.8433
 0.07500    4.96     2.98   1.68327  0.8433
 0.10000    4.95     2.98   1.68256  0.8432
 0.12500    4.95     2.98   1.68185  0.8435
 0.15000    4.95     2.98   1.68033  0.8436
 0.17500    4.94     3.00   1.67943  0.8436
 0.20000    4.94     2.99   1.67919  0.8435
 0.22500    4.93     2.99   1.67712  0.8435
 0.25000    4.93     2.98   1.67722  0.8435
 0.27500    4.92     2.98   1.67610  0.8435
 0.30000    4.92     3.00   1.67407  0.8436
 0.32500    4.91     2.98   1.67389  0.8435
 0.35000    4.91     2.98   1.67374  0.8436
 0.37500    4.91     2.99   1.67309  0.8435
 0.40000    4.91     3.00   1.67160  0.8437
 0.42500    4.91     2.98   1.66998  0.8437
 0.45000    4.91     2.98   1.66961  0.8438
 0.47500    4.90     2.97   1.66777  0.8440
 0.50000    4.90     3.00   1.66681  0.8438
 0.52500    4.90     2.98   1.66631  0.8441
 0.55000    4.90     2.98   1.66481  0.8440
 0.57500    4.90     2.98   1.66420  0.8439
 0.60000    4.90     2.99   1.66313  0.8438
 0.62500    4.90     2.98   1.66114  0.8436
 0.65000    4.89     2.98   1.65863  0.8435
 0.67500    4.89     2.99   1.65417  0.8435
 0.70000    4.89     3.00   1.65237  0.8434
 0.72500    4.89     2.99   1.65132  0.8430
 0.75000    4.88     2.97   1.64893  0.8427
 0.77500    4.88     2.98   1.64640  0.8423
 0.80000    4.87     2.97   1.64306  0.8418
 0.82500    4.87     2.98   1.64013  0.8410
 0.85000    4.86     2.98   1.64001  0.8400
 0.87500    4.86     2.99   1.64263  0.8389
 0.90000    4.86     2.98   1.64545  0.8382
 0.92500    4.86     2.98   1.65138  0.8377
 0.95000    4.86     2.99   1.65748  0.8374
 0.97500    4.86     2.98   1.66178  0.8371
 1.00000    4.86     2.99   1.66576  0.8371
 1.02500    4.86     2.98   1.66939  0.8372
 1.05000    4.86     2.97   1.67307  0.8371
 1.07500    4.85     2.96   1.67479  0.8371
 1.10000    4.85     2.97   1.67635  0.8371
 1.12500    4.84     2.98   1.67812  0.8374
 1.15000    4.85     2.97   1.68088  0.8374
 1.17500    4.85     2.97   1.68166  0.8378
 1.20000    4.85     2.97   1.68326  0.8378
 1.22500    4.86     2.99   1.68478  0.8379
 1.25000    4.87     2.97   1.68628  0.8380
 1.27500    4.87     2.97   1.68827  0.8379
 1.30000    4.88     2.99   1.68887  0.8379
 1.32500    4.89     3.00   1.69046  0.8379
 1.35000    4.90     2.99   1.69170  0.8381
 1.37500    4.90     2.98   1.69192  0.8384
 1.40000    4.91     2.98   1.69282  0.8384
 1.42500    4.91     2.99   1.69405  0.8386
 1.45000    4.92     2.98   1.69581  0.8384
 1.47500    4.92     2.98   1.69673  0.8386
 1.50000    4.93     3.00   1.69815  0.8386
 1.52500    4.94     3.00   1.69787  0.8387
 1.55000    4.94     2.99   1.69917  0.8387
 1.57500    4.95     2.99   1.69994  0.8388
 1.60000    4.95     3.00   1.70009  0.8390
 1.62500    4.96     2.99   1.70228  0.8389
 1.65000    4.96     3.01   1.70204  0.8392
 1.67500    4.97     3.01   1.70286  0.8391
 1.70000    4.98     3.00   1.70436  0.8391
 1.72500    4.98     2.99   1.70516  0.8392
 1.75000    4.99     3.01   1.70486  0.8394
 1.77500    4.99     3.01   1.70671  0.8393
 1.80000    5.00     2.99   1.70636  0.8395
 1.82500    5.00     2.99   1.70728  0.8397
 1.85000    5.00     3.00   1.70712  0.8399
 1.87500    5.01     2.99   1.70768  0.8399
 1.90000    5.01     3.00   1.70776  0.8400
 1.92500    5.01     3.01   1.70888  0.8401
 1.95000    5.01     3.01   1.70934  0.8402
 1.97500    5.01     3.00   1.71062  0.8400
 2.00000    5.01     2.99   1.70958  0.8399
 2.00000    5.01     2.99   1.70936  0.8401
 1.97500    5.00     3.00   1.70974  0.8402
 1.95000    4.99     2.99   1.71032  0.8400
 1.92500    4.99     3.00   1.71038  0.8400
 1.90000    4.98     3.01   1.71046  0.8398
 1.87500    4.98     3.00   1.70883  0.8398
 1.85000    4.97     3.00   1.70894  0.8399
 1.82500    4.97     2.99   1.70897  0.8397
 1.80000    4.96     3.01   1.71005  0.8395
 1.77500    4.96     3.01   1.70815  0.8397
 1.75000    4.96     3.01   1.70826  0.8396
 1.72500    4.96     3.01   1.70785  0.8395
 1.70000    4.95     3.01   1.70865  0.8393
 1.67500    4.95     3.02   1.70748  0.8392
 1.65000    4.96     3.02   1.70740  0.8392
 1.62500    4.96     3.02   1.70658  0.8392
 1.60000    4.97     3.02   1.70519  0.8393
 1.57500    4.97     3.04   1.70568  0.8391
 1.55000    4.98     3.04   1.70551  0.8389
 1.52500    4.99     3.03   1.70452  0.8388
 1.50000    4.99     3.03   1.70340  0.8388
 1.47500    4.99     3.03   1.70323  0.8389
 1.45000    5.00     3.04   1.70296  0.8387
 1.42500    5.01     3.03   1.70272  0.8387
 1.40000    5.01     3.03   1.70130  0.8387
 1.37500    5.02     3.04   1.70152  0.8387
 1.35000    5.03     3.05   1.70085  0.8387
 1.32500    5.04     3.05   1.69918  0.8386
 1.30000    5.04     3.04   1.69787  0.8385
 1.27500    5.05     3.04   1.69591  0.8384
 1.25000    5.05     3.04   1.69513  0.8383
 1.22500    5.06     3.03   1.69433  0.8384
 1.20000    5.06     3.03   1.69303  0.8384
 1.17500    5.07     3.04   1.69135  0.8383
 1.15000    5.07     3.03   1.68962  0.8381
 1.12500    5.08     3.03   1.68934  0.8380
 1.10000    5.08     3.03   1.68818  0.8380
 1.07500    5.09     3.02   1.68506  0.8380
 1.05000    5.09     3.04   1.68227  0.8376
 1.02500    5.10     3.02   1.67952  0.8374
 1.00000    5.10     3.02   1.67655  0.8375
 0.97500    5.10     3.02   1.67186  0.8374
 0.95000    5.10     3.02   1.66683  0.8376
 0.92500    5.11     3.03   1.66180  0.8378
 0.90000    5.11     3.02   1.65668  0.8381
 0.87500    5.12     3.01   1.65182  0.8390
 0.85000    5.12     3.02   1.65004  0.8399
 0.82500    5.12     3.03   1.64954  0.8409
 0.80000    5.12     3.01   1.65177  0.8417
 0.77500    5.12     3.01   1.65452  0.8425
 0.75000    5.12     3.01   1.65759  0.8431
 0.72500    5.12     3.01   1.66020  0.8434
 0.70000    5.12     3.02   1.66315  0.8437
 0.67500    5.12     3.02   1.66623  0.8438
 0.65000    5.12     3.00   1.67042  0.8438
 0.62500    5.11     3.01   1.67094  0.8440
 0.60000    5.11     3.00   1.67305  0.8439
 0.57500    5.11     3.00   1.67456  0.8438
 0.55000    5.10     3.00   1.67636  0.8440
 0.52500    5.09     3.01   1.67700  0.8440
 0.50000    5.09     3.01   1.67993  0.8438
 0.47500    5.09     3.00   1.68034  0.8439
 0.45000    5.08     3.00   1.68070  0.8438
 0.42500    5.08     3.00   1.68069  0.8438
 0.40000    5.07     3.01   1.68186  0.8438
 0.37500    5.07     2.99   1.68204  0.8438
 0.35000    5.07     3.01   1.68271  0.8439
 0.32500    5.06     2.99   1.68319  0.8440
 0.30000    5.06     3.01   1.68381  0.8439
 0.27500    5.06     3.01   1.68523  0.8439
 0.25000    5.06     2.99   1.68384  0.8440
 0.22500    5.05     3.01   1.68496  0.8438
 0.20000    5.05     3.00   1.68586  0.8439
 0.17500    5.05     3.00   1.68602  0.8438
 0.15000    5.05     3.00   1.68584  0.8436
 0.12500    5.05     3.00   1.68642  0.8437
 0.10000    5.05     3.00   1.68726  0.8436
 0.07500    5.05     3.01   1.68699  0.8438
 0.05000    5.06     2.99   1.68720  0.8436
 0.02500    5.06     3.00   1.68817  0.8436
-0.00000    5.06     2.99   1.68844  0.8436
