 Field[T] Tsmpl[K] Tcntr[K] Signal   Mirror[MM]
 0.00000    4.63     2.99   1.12144  0.9182
 0.05000    4.63     2.99   1.12181  0.9182
 0.10000    4.63     2.99   1.12189  0.9183
 0.15000    4.63     3.00   1.12200  0.9184
 0.20000    4.63     2.99   1.12214  0.9185
 0.25000    4.63     2.99   1.12275  0.9186
 0.30000    4.63     2.99   1.12283  0.9187
 0.35000    4.64     2.99   1.12257  0.9187
 0.40000    4.64     2.99   1.12227  0.9189
 0.45000    4.65     2.99   1.12200  0.9190
 0.50000    4.65     2.99   1.12148  0.9191
 0.55000    4.66     3.00   1.12170  0.9192
 0.60000    4.67     3.00   1.12144  0.9192
 0.65000    4.68     2.99   1.12098  0.9192
 0.70000    4.69     2.99   1.12023  0.9194
 0.75000    4.70     2.99   1.12002  0.9194
 0.80000    4.70     2.99   1.11985  0.9195
 0.85000    4.70     3.00   1.11943  0.9195
 0.90000    4.70     2.99   1.11856  0.9196
 0.95000    4.70     2.99   1.11777  0.9196
 1.00000    4.70     2.99   1.11738  0.9197
 1.05000    4.70     2.98   1.11642  0.9199
 1.10000    4.69     2.99   1.11593  0.9199
 1.15000    4.69     2.98   1.11451  0.9202
 1.20000    4.68     2.98   1.11253  0.9204
 1.25000    4.68     2.98   1.11077  0.9206
 1.30000    4.68     2.99   1.10809  0.9206
 1.35000    4.68     2.98   1.10456  0.9208
 1.40000    4.69     2.99   1.09968  0.9209
 1.45000    4.70     2.98   1.09314  0.9207
 1.50000    4.70     2.98   1.08550  0.9200
 1.55000    4.70     2.99   1.08270  0.9188
 1.60000    4.70     2.98   1.08633  0.9174
 1.65000    4.70     2.99   1.09221  0.9168
 1.70000    4.69     2.99   1.09821  0.9166
 1.75000    4.69     3.00   1.10249  0.9166
 1.80000    4.68     2.99   1.10500  0.9169
 1.85000    4.67     3.00   1.10604  0.9172
 1.90000    4.66     3.00   1.10633  0.9171
 1.95000    4.65     3.01   1.10590  0.9172
 2.00000    4.64     3.00   1.10537  0.9174
 2.05000    4.64     3.00   1.10583  0.9172
 2.10000    4.64     2.99   1.10614  0.9171
 2.15000    4.64     3.00   1.10731  0.9169
 2.20000    4.64     2.99   1.10820  0.9169
 2.25000    4.65     3.00   1.10919  0.9170
 2.30000    4.65     2.99   1.10993  0.9170
 2.35000    4.65     3.00   1.11101  0.9168
 2.40000    4.66     3.01   1.11163  0.9169
 2.45000    4.66     3.01   1.11250  0.9168
 2.50000    4.67     3.00   1.11292  0.9168
 2.55000    4.67     3.00   1.11321  0.9169
 2.60000    4.68     3.01   1.11422  0.9169
 2.65000    4.68     3.01   1.11433  0.9170
 2.70000    4.68     3.02   1.11465  0.9172
 2.75000    4.69     3.01   1.11475  0.9171
 2.80000    4.71     3.02   1.11518  0.9171
 2.85000    4.72     3.02   1.11537  0.9171
 2.90000    4.74     3.03   1.11582  0.9172
 2.95000    4.75     3.03   1.11591  0.9173
 3.00000    4.77     3.03   1.11593  0.9173
 3.00000    4.78     3.03   1.11590  0.9173
 2.95000    4.78     3.03   1.11546  0.9173
 2.90000    4.79     3.03   1.11566  0.9173
 2.85000    4.80     3.03   1.11520  0.9173
 2.80000    4.81     3.03   1.11499  0.9173
 2.75000    4.82     3.04   1.11459  0.9172
 2.70000    4.83     3.05   1.11394  0.9172
 2.65000    4.84     3.05   1.11397  0.9170
 2.60000    4.85     3.06   1.11332  0.9172
 2.55000    4.86     3.06   1.11297  0.9172
 2.50000    4.87     3.07   1.11217  0.9172
 2.45000    4.88     3.07   1.11174  0.9172
 2.40000    4.89     3.07   1.11118  0.9171
 2.35000    4.90     3.08   1.11019  0.9170
 2.30000    4.91     3.08   1.10940  0.9172
 2.25000    4.92     3.08   1.10802  0.9171
 2.20000    4.93     3.07   1.10727  0.9172
 2.15000    4.93     3.07   1.10662  0.9170
 2.10000    4.94     3.07   1.10579  0.9172
 2.05000    4.95     3.07   1.10482  0.9172
 2.00000    4.95     3.06   1.10488  0.9175
 1.95000    4.96     3.07   1.10516  0.9176
 1.90000    4.96     3.06   1.10475  0.9177
 1.85000    4.97     3.05   1.10468  0.9175
 1.80000    4.97     3.07   1.10401  0.9174
 1.75000    4.98     3.06   1.10171  0.9171
 1.70000    4.99     3.05   1.09760  0.9170
 1.65000    4.99     3.05   1.09189  0.9172
 1.60000    5.00     3.04   1.08606  0.9176
 1.55000    5.00     3.05   1.08204  0.9187
 1.50000    5.00     3.04   1.08414  0.9201
 1.45000    5.01     3.04   1.09173  0.9210
 1.40000    5.01     3.03   1.09863  0.9210
 1.35000    5.01     3.03   1.10371  0.9211
 1.30000    5.02     3.02   1.10679  0.9208
 1.25000    5.02     3.02   1.10942  0.9206
 1.20000    5.03     3.02   1.11157  0.9205
 1.15000    5.03     3.02   1.11287  0.9205
 1.10000    5.04     3.01   1.11412  0.9203
 1.05000    5.05     3.02   1.11555  0.9202
 1.00000    5.06     3.02   1.11672  0.9202
 0.95000    5.06     3.02   1.11743  0.9200
 0.90000    5.07     3.01   1.11868  0.9198
 0.85000    5.07     3.01   1.11959  0.9197
 0.80000    5.07     3.00   1.12021  0.9199
 0.75000    5.07     3.01   1.12115  0.9198
 0.70000    5.07     3.01   1.12151  0.9196
 0.65000    5.07     3.01   1.12164  0.9197
 0.60000    5.06     3.01   1.12202  0.9206
 0.55000    5.06     3.01   1.12327  0.9202
 0.50000    5.05     3.00   1.12389  0.9198
 0.45000    5.04     3.01   1.12418  0.9196
 0.40000    5.03     3.01   1.12486  0.9197
 0.35000    5.02     3.01   1.12520  0.9194
 0.30000    5.01     3.00   1.12595  0.9190
 0.25000    5.00     3.00   1.12595  0.9188
 0.20000    4.99     3.00   1.12631  0.9190
 0.15000    4.98     3.00   1.12677  0.9191
 0.10000    4.97     3.00   1.12701  0.9191
 0.05000    4.95     2.99   1.12788  0.9189
-0.00000    4.94     3.00   1.12802  0.9188
