 Field[T] Tsmpl[K] Tcntr[K] Signal   Mirror[MM]
 0.00000    4.74     2.98   1.42475  0.9517
 0.05000    4.74     2.99   1.42340  0.9516
 0.10000    4.74     2.99   1.42328  0.9516
 0.15000    4.74     2.99   1.42225  0.9517
 0.20000    4.74     2.99   1.42220  0.9519
 0.25000    4.74     2.99   1.42104  0.9519
 0.30000    4.74     2.99   1.41990  0.9520
 0.35000    4.74     2.98   1.41971  0.9521
 0.40000    4.74     2.98   1.41854  0.9522
 0.45000    4.74     2.99   1.41784  0.9522
 0.50000    4.74     2.99   1.41723  0.9523
 0.55000    4.74     2.98   1.41602  0.9523
 0.60000    4.74     2.98   1.41508  0.9522
 0.65000    4.75     2.98   1.41369  0.9522
 0.70000    4.75     2.96   1.41278  0.9522
 0.75000    4.76     2.98   1.41206  0.9526
 0.80000    4.77     2.98   1.41105  0.9525
 0.85000    4.78     2.99   1.40989  0.9525
 0.90000    4.78     2.99   1.40868  0.9527
 0.95000    4.79     2.99   1.40678  0.9527
 1.00000    4.80     2.98   1.40533  0.9528
 1.05000    4.80     2.98   1.40322  0.9529
 1.10000    4.80     2.99   1.40160  0.9530
 1.15000    4.80     2.98   1.39844  0.9531
 1.20000    4.80     2.98   1.39478  0.9532
 1.25000    4.80     2.97   1.39000  0.9532
 1.30000    4.80     2.98   1.38395  0.9530
 1.35000    4.79     2.97   1.37660  0.9524
 1.40000    4.79     2.98   1.37232  0.9513
 1.45000    4.80     2.98   1.37471  0.9500
 1.50000    4.80     2.97   1.38269  0.9493
 1.55000    4.80     2.97   1.39107  0.9491
 1.60000    4.80     2.98   1.39707  0.9493
 1.65000    4.81     2.98   1.40077  0.9496
 1.70000    4.81     2.98   1.40269  0.9498
 1.75000    4.81     2.99   1.40314  0.9498
 1.80000    4.80     2.99   1.40274  0.9501
 1.85000    4.80     2.99   1.40312  0.9499
 1.90000    4.79     2.99   1.40424  0.9500
 1.95000    4.78     2.99   1.40484  0.9499
 2.00000    4.77     2.99   1.40628  0.9499
 2.05000    4.76     2.99   1.40756  0.9499
 2.10000    4.76     2.99   1.40873  0.9498
 2.15000    4.75     3.00   1.40976  0.9499
 2.20000    4.75     2.99   1.41061  0.9500
 2.25000    4.75     2.99   1.41183  0.9500
 2.30000    4.74     3.00   1.41235  0.9502
 2.35000    4.74     2.99   1.41292  0.9501
 2.40000    4.73     3.00   1.41361  0.9503
 2.45000    4.73     2.99   1.41446  0.9503
 2.50000    4.73     3.00   1.41424  0.9505
 2.55000    4.75     3.00   1.41474  0.9504
 2.60000    4.76     3.01   1.41518  0.9503
 2.65000    4.78     3.00   1.41578  0.9504
 2.70000    4.80     3.01   1.41570  0.9506
 2.75000    4.82     3.00   1.41595  0.9507
 2.80000    4.84     3.01   1.41692  0.9507
 2.85000    4.86     3.01   1.41635  0.9507
 2.90000    4.87     3.01   1.41710  0.9508
 2.95000    4.89     3.01   1.41666  0.9509
 3.00000    4.90     3.01   1.41657  0.9509
 3.00000    4.91     3.01   1.41676  0.9510
 2.95000    4.93     3.02   1.41731  0.9509
 2.90000    4.94     3.02   1.41698  0.9508
 2.85000    4.96     3.02   1.41704  0.9509
 2.80000    4.98     3.02   1.41682  0.9509
 2.75000    4.99     3.03   1.41659  0.9507
 2.70000    5.01     3.03   1.41617  0.9507
 2.65000    5.03     3.04   1.41576  0.9506
 2.60000    5.05     3.04   1.41549  0.9505
 2.55000    5.06     3.05   1.41487  0.9504
 2.50000    5.07     3.04   1.41486  0.9505
 2.45000    5.08     3.05   1.41484  0.9504
 2.40000    5.09     3.05   1.41445  0.9503
 2.35000    5.10     3.05   1.41363  0.9503
 2.30000    5.11     3.05   1.41314  0.9503
 2.25000    5.12     3.05   1.41239  0.9502
 2.20000    5.12     3.05   1.41126  0.9502
 2.15000    5.13     3.04   1.41039  0.9500
 2.10000    5.13     3.05   1.40946  0.9499
 2.05000    5.14     3.04   1.40833  0.9500
 2.00000    5.14     3.04   1.40739  0.9499
 1.95000    5.14     3.04   1.40585  0.9499
 1.90000    5.14     3.03   1.40466  0.9499
 1.85000    5.14     3.04   1.40406  0.9499
 1.80000    5.14     3.03   1.40322  0.9502
 1.75000    5.14     3.03   1.40407  0.9500
 1.70000    5.15     3.03   1.40307  0.9499
 1.65000    5.15     3.03   1.40136  0.9497
 1.60000    5.16     3.03   1.39800  0.9494
 1.55000    5.16     3.03   1.39286  0.9493
 1.50000    5.16     3.02   1.38446  0.9497
 1.45000    5.17     3.02   1.37646  0.9502
 1.40000    5.17     3.02   1.37318  0.9515
 1.35000    5.17     3.02   1.37712  0.9527
 1.30000    5.18     3.02   1.38449  0.9532
 1.25000    5.18     3.02   1.38998  0.9534
 1.20000    5.19     3.02   1.39455  0.9535
 1.15000    5.19     3.02   1.39806  0.9533
 1.10000    5.19     3.02   1.40042  0.9534
 1.05000    5.18     3.01   1.40297  0.9533
 1.00000    5.18     3.01   1.40453  0.9532
 0.95000    5.17     3.01   1.40633  0.9531
 0.90000    5.16     3.00   1.40764  0.9530
 0.85000    5.16     3.01   1.40908  0.9529
 0.80000    5.15     3.01   1.41002  0.9529
 0.75000    5.14     3.00   1.41062  0.9530
 0.70000    5.13     3.01   1.41157  0.9528
 0.65000    5.12     3.00   1.41290  0.9527
 0.60000    5.11     3.00   1.41331  0.9528
 0.55000    5.11     3.00   1.41388  0.9527
 0.50000    5.09     3.01   1.41487  0.9527
 0.45000    5.08     3.00   1.41521  0.9524
 0.40000    5.07     3.00   1.41572  0.9524
 0.35000    5.06     2.99   1.41663  0.9523
 0.30000    5.05     3.01   1.41735  0.9523
 0.25000    5.03     3.00   1.41757  0.9522
 0.20000    5.02     2.99   1.41797  0.9522
 0.15000    5.00     3.00   1.41837  0.9522
 0.10000    4.98     3.00   1.41845  0.9520
 0.05000    4.97     2.99   1.41883  0.9521
-0.00000    4.95     3.00   1.41890  0.9519
