 Field[T] Tsmpl[K] Tcntr[K] Signal   Mirror[MM]
 0.00000    5.34     2.99   0.65262  0.9055
 0.05000    5.33     2.98   0.65256  0.9053
 0.10000    5.32     2.98   0.65236  0.9058
 0.15000    5.31     2.98   0.65175  0.9054
 0.20000    5.30     2.98   0.65174  0.9055
 0.25000    5.30     2.97   0.65143  0.9055
 0.30000    5.29     2.99   0.65103  0.9057
 0.35000    5.28     2.98   0.65029  0.9058
 0.40000    5.27     2.98   0.65012  0.9060
 0.45000    5.26     2.97   0.64951  0.9058
 0.50000    5.26     2.97   0.64906  0.9059
 0.55000    5.25     2.97   0.64850  0.9059
 0.60000    5.23     2.96   0.64791  0.9060
 0.65000    5.22     2.97   0.64715  0.9061
 0.70000    5.21     2.97   0.64656  0.9060
 0.75000    5.21     2.97   0.64533  0.9063
 0.80000    5.20     2.96   0.64436  0.9064
 0.85000    5.19     2.96   0.64315  0.9063
 0.90000    5.18     2.96   0.64145  0.9065
 0.95000    5.17     2.95   0.63923  0.9064
 1.00000    5.16     2.95   0.63652  0.9062
 1.05000    5.15     2.96   0.63395  0.9054
 1.10000    5.14     2.95   0.63266  0.9040
 1.15000    5.13     2.96   0.63447  0.9028
 1.20000    5.12     2.95   0.63709  0.9022
 1.25000    5.11     2.95   0.63950  0.9021
 1.30000    5.11     2.95   0.64100  0.9023
 1.35000    5.11     2.95   0.64193  0.9023
 1.40000    5.10     2.96   0.64287  0.9025
 1.45000    5.10     2.95   0.64345  0.9023
 1.50000    5.10     2.95   0.64417  0.9021
 1.55000    5.10     2.96   0.64451  0.9022
 1.60000    5.10     2.97   0.64484  0.9023
 1.65000    5.10     2.96   0.64552  0.9027
 1.70000    5.10     2.97   0.64596  0.9026
 1.75000    5.10     2.97   0.64623  0.9025
 1.80000    5.11     2.98   0.64677  0.9025
 1.85000    5.11     2.98   0.64708  0.9025
 1.90000    5.12     2.98   0.64699  0.9027
 1.95000    5.13     2.98   0.64725  0.9027
 2.00000    5.14     2.99   0.64760  0.9027
 2.00000    5.14     2.99   0.64753  0.9027
 1.97500    5.15     2.98   0.64749  0.9028
 1.95000    5.15     2.99   0.64744  0.9027
 1.92500    5.15     2.99   0.64729  0.9026
 1.90000    5.16     2.99   0.64739  0.9025
 1.87500    5.16     2.99   0.64713  0.9024
 1.85000    5.16     2.99   0.64702  0.9025
 1.82500    5.17     2.99   0.64684  0.9026
 1.80000    5.17     3.00   0.64644  0.9027
 1.77500    5.17     3.00   0.64640  0.9024
 1.75000    5.18     2.99   0.64622  0.9026
 1.72500    5.18     3.00   0.64599  0.9024
 1.70000    5.19     3.00   0.64580  0.9023
 1.67500    5.19     2.99   0.64551  0.9023
 1.65000    5.20     3.01   0.64535  0.9023
 1.62500    5.20     3.00   0.64503  0.9023
 1.60000    5.20     3.00   0.64441  0.9024
 1.57500    5.20     3.00   0.64453  0.9023
 1.55000    5.21     3.01   0.64437  0.9023
 1.52500    5.21     3.01   0.64403  0.9023
 1.50000    5.22     3.00   0.64378  0.9022
 1.47500    5.22     3.01   0.64354  0.9024
 1.45000    5.23     3.01   0.64340  0.9023
 1.42500    5.24     3.01   0.64325  0.9024
 1.40000    5.24     3.01   0.64276  0.9023
 1.37500    5.24     3.01   0.64243  0.9022
 1.35000    5.25     3.01   0.64219  0.9022
 1.32500    5.26     3.01   0.64147  0.9022
 1.30000    5.26     3.01   0.64114  0.9022
 1.27500    5.26     3.02   0.64041  0.9022
 1.25000    5.27     3.01   0.63956  0.9022
 1.22500    5.27     3.02   0.63835  0.9022
 1.20000    5.28     3.01   0.63734  0.9023
 1.17500    5.28     3.01   0.63586  0.9024
 1.15000    5.28     3.01   0.63428  0.9027
 1.12500    5.28     3.01   0.63311  0.9033
 1.10000    5.28     3.01   0.63240  0.9040
 1.07500    5.29     3.01   0.63242  0.9046
 1.05000    5.29     3.01   0.63310  0.9052
 1.02500    5.29     3.01   0.63434  0.9059
 1.00000    5.29     3.01   0.63559  0.9062
 0.97500    5.30     3.01   0.63714  0.9064
 0.95000    5.30     3.01   0.63834  0.9066
 0.92500    5.30     3.01   0.63955  0.9066
 0.90000    5.30     3.01   0.64056  0.9066
 0.87500    5.30     3.01   0.64147  0.9066
 0.85000    5.30     3.01   0.64195  0.9065
 0.82500    5.31     3.02   0.64254  0.9064
 0.80000    5.31     3.01   0.64294  0.9066
 0.77500    5.31     3.01   0.64404  0.9065
 0.75000    5.31     3.01   0.64410  0.9066
 0.72500    5.31     3.01   0.64472  0.9067
 0.70000    5.31     3.00   0.64515  0.9066
 0.67500    5.31     3.01   0.64563  0.9065
 0.65000    5.31     3.01   0.64595  0.9064
 0.62500    5.31     3.01   0.64644  0.9061
 0.60000    5.30     3.01   0.64686  0.9060
 0.57500    5.30     3.01   0.64691  0.9063
 0.55000    5.30     3.00   0.64709  0.9063
 0.52500    5.29     3.00   0.64743  0.9061
 0.50000    5.29     3.01   0.64774  0.9061
 0.47500    5.29     3.00   0.64791  0.9061
 0.45000    5.29     3.01   0.64784  0.9060
 0.42500    5.28     3.01   0.64815  0.9060
 0.40000    5.28     3.00   0.64843  0.9059
 0.37500    5.28     3.00   0.64830  0.9058
 0.35000    5.28     3.00   0.64865  0.9058
 0.32500    5.28     3.00   0.64912  0.9057
 0.30000    5.27     3.01   0.64933  0.9055
 0.27500    5.27     2.99   0.64908  0.9056
 0.25000    5.27     3.00   0.64943  0.9057
 0.22500    5.26     3.00   0.64951  0.9056
 0.20000    5.26     3.00   0.64976  0.9057
 0.17500    5.25     3.00   0.64983  0.9057
 0.15000    5.25     3.00   0.64999  0.9056
 0.12500    5.24     3.00   0.65010  0.9055
 0.10000    5.24     3.00   0.65049  0.9055
 0.07500    5.24     2.99   0.65048  0.9053
 0.05000    5.23     3.00   0.65053  0.9053
 0.02500    5.22     2.99   0.65055  0.9055
-0.00000    5.21     3.00   0.65083  0.9054
