 Field[T] Tsmpl[K] Tcntr[K] Signal   Mirror[MM]
 0.00000    4.74     2.97   0.75935  0.9270
 0.05000    4.74     2.98   0.75898  0.9271
 0.10000    4.74     2.98   0.75855  0.9271
 0.15000    4.74     2.98   0.75792  0.9272
 0.20000    4.73     2.99   0.75765  0.9273
 0.25000    4.74     2.99   0.75735  0.9272
 0.30000    4.74     2.98   0.75688  0.9273
 0.35000    4.74     2.98   0.75641  0.9273
 0.40000    4.74     2.98   0.75562  0.9275
 0.45000    4.74     2.98   0.75518  0.9276
 0.50000    4.75     2.98   0.75479  0.9278
 0.55000    4.76     2.98   0.75444  0.9278
 0.60000    4.77     2.98   0.75308  0.9278
 0.65000    4.78     2.97   0.75302  0.9277
 0.70000    4.78     2.97   0.75210  0.9278
 0.75000    4.78     2.98   0.75122  0.9279
 0.80000    4.79     2.97   0.75034  0.9281
 0.85000    4.79     2.98   0.74995  0.9281
 0.90000    4.79     2.98   0.74919  0.9281
 0.95000    4.79     2.97   0.74789  0.9282
 1.00000    4.79     2.98   0.74678  0.9282
 1.05000    4.79     2.98   0.74511  0.9284
 1.10000    4.79     2.98   0.74321  0.9284
 1.15000    4.79     2.98   0.74047  0.9284
 1.20000    4.78     2.98   0.73705  0.9283
 1.25000    4.78     2.97   0.73315  0.9278
 1.30000    4.78     2.98   0.73031  0.9264
 1.35000    4.78     2.97   0.73194  0.9251
 1.40000    4.78     2.97   0.73609  0.9242
 1.45000    4.78     2.97   0.73971  0.9241
 1.50000    4.79     2.98   0.74275  0.9241
 1.55000    4.79     2.98   0.74421  0.9245
 1.60000    4.80     2.98   0.74526  0.9246
 1.65000    4.80     2.98   0.74544  0.9245
 1.70000    4.80     2.98   0.74568  0.9247
 1.75000    4.80     2.98   0.74607  0.9246
 1.80000    4.80     2.98   0.74700  0.9243
 1.85000    4.80     2.99   0.74737  0.9244
 1.90000    4.78     2.99   0.74799  0.9245
 1.95000    4.78     2.99   0.74861  0.9246
 2.00000    4.76     2.99   0.74942  0.9245
 2.05000    4.76     2.99   0.74978  0.9246
 2.10000    4.75     2.99   0.75025  0.9245
 2.15000    4.74     2.99   0.75081  0.9246
 2.20000    4.74     2.99   0.75105  0.9247
 2.25000    4.73     3.00   0.75130  0.9248
 2.30000    4.73     3.00   0.75182  0.9248
 2.35000    4.73     3.00   0.75214  0.9248
 2.40000    4.73     3.00   0.75188  0.9249
 2.45000    4.74     3.00   0.75207  0.9250
 2.50000    4.76     3.00   0.75248  0.9250
 2.55000    4.77     3.01   0.75252  0.9252
 2.60000    4.79     3.01   0.75273  0.9250
 2.65000    4.80     3.00   0.75287  0.9251
 2.70000    4.83     3.01   0.75283  0.9254
 2.75000    4.84     3.01   0.75293  0.9253
 2.80000    4.86     3.01   0.75293  0.9255
 2.85000    4.88     3.02   0.75289  0.9254
 2.90000    4.89     3.01   0.75316  0.9255
 2.95000    4.91     3.01   0.75297  0.9255
 3.00000    4.92     3.01   0.75302  0.9254
 3.00000    4.92     3.02   0.75308  0.9254
 2.95000    4.94     3.02   0.75303  0.9254
 2.90000    4.95     3.02   0.75275  0.9255
 2.85000    4.97     3.02   0.75303  0.9253
 2.80000    4.99     3.03   0.75300  0.9253
 2.75000    5.01     3.04   0.75314  0.9252
 2.70000    5.02     3.03   0.75307  0.9255
 2.65000    5.05     3.05   0.75330  0.9252
 2.60000    5.07     3.05   0.75275  0.9253
 2.55000    5.09     3.04   0.75272  0.9252
 2.50000    5.10     3.05   0.75258  0.9253
 2.45000    5.11     3.04   0.75253  0.9251
 2.40000    5.12     3.05   0.75241  0.9250
 2.35000    5.13     3.04   0.75232  0.9247
 2.30000    5.14     3.04   0.75222  0.9249
 2.25000    5.14     3.04   0.75183  0.9248
 2.20000    5.15     3.04   0.75177  0.9247
 2.15000    5.15     3.04   0.75129  0.9247
 2.10000    5.15     3.04   0.75096  0.9247
 2.05000    5.15     3.04   0.75045  0.9245
 2.00000    5.15     3.04   0.74985  0.9244
 1.95000    5.15     3.03   0.74924  0.9245
 1.90000    5.15     3.04   0.74884  0.9246
 1.85000    5.15     3.04   0.74795  0.9248
 1.80000    5.15     3.03   0.74738  0.9246
 1.75000    5.15     3.03   0.74680  0.9247
 1.70000    5.16     3.03   0.74637  0.9246
 1.65000    5.16     3.03   0.74593  0.9246
 1.60000    5.16     3.03   0.74564  0.9245
 1.55000    5.17     3.03   0.74457  0.9244
 1.50000    5.17     3.03   0.74293  0.9242
 1.45000    5.17     3.02   0.74070  0.9242
 1.40000    5.17     3.03   0.73720  0.9243
 1.35000    5.18     3.01   0.73296  0.9250
 1.30000    5.18     3.01   0.73120  0.9263
 1.25000    5.18     3.02   0.73294  0.9274
 1.20000    5.18     3.01   0.73651  0.9280
 1.15000    5.19     3.02   0.73961  0.9282
 1.10000    5.19     3.01   0.74244  0.9282
 1.05000    5.19     3.01   0.74425  0.9282
 1.00000    5.19     3.01   0.74579  0.9282
 0.95000    5.19     3.01   0.74684  0.9282
 0.90000    5.18     3.01   0.74784  0.9281
 0.85000    5.18     3.01   0.74869  0.9281
 0.80000    5.17     3.01   0.74916  0.9279
 0.75000    5.15     3.01   0.74991  0.9279
 0.70000    5.14     3.00   0.75064  0.9279
 0.65000    5.12     3.00   0.75107  0.9278
 0.60000    5.12     3.00   0.75142  0.9278
 0.55000    5.11     3.00   0.75180  0.9275
 0.50000    5.09     3.00   0.75234  0.9274
 0.45000    5.08     3.00   0.75263  0.9276
 0.40000    5.07     2.99   0.75293  0.9276
 0.35000    5.06     3.00   0.75288  0.9275
 0.30000    5.05     3.00   0.75332  0.9274
 0.25000    5.04     3.00   0.75351  0.9273
 0.20000    5.03     2.99   0.75401  0.9273
 0.15000    5.02     3.00   0.75405  0.9274
 0.10000    5.01     3.00   0.75464  0.9272
 0.05000    4.99     3.00   0.75479  0.9270
-0.00000    4.98     3.00   0.75475  0.9269
