 Field[T] Tsmpl[K] Tcntr[K] Signal   Mirror[MM]
 0.00000    4.47     2.90   1.39492  1.6950
 0.05000    4.46     2.92   1.39384  1.6951
 0.10000    4.46     2.92   1.39298  1.6949
 0.15000    4.46     2.90   1.39224  1.6950
 0.20000    4.46     2.91   1.39197  1.6951
 0.25000    4.45     2.92   1.39209  1.6953
 0.30000    4.45     2.94   1.39307  1.6952
 0.35000    4.45     2.94   1.39214  1.6951
 0.40000    4.45     2.95   1.39073  1.6952
 0.45000    4.46     2.96   1.38956  1.6953
 0.50000    4.46     2.95   1.38853  1.6956
 0.55000    4.46     2.96   1.38769  1.6957
 0.60000    4.46     2.97   1.38697  1.6960
 0.65000    4.45     2.94   1.38570  1.6958
 0.70000    4.44     2.95   1.38546  1.6958
 0.75000    4.43     2.96   1.38465  1.6960
 0.80000    4.42     2.95   1.38416  1.6961
 0.85000    4.42     2.95   1.38356  1.6961
 0.90000    4.41     2.95   1.38363  1.6959
 0.95000    4.41     2.95   1.38378  1.6957
 1.00000    4.39     2.93   1.38327  1.6956
 1.05000    4.39     2.94   1.38244  1.6961
 1.10000    4.38     2.94   1.38217  1.6959
 1.15000    4.37     2.94   1.38151  1.6961
 1.20000    4.37     2.94   1.37934  1.6961
 1.25000    4.36     2.95   1.37760  1.6962
 1.30000    4.36     2.94   1.37607  1.6962
 1.35000    4.36     2.94   1.37437  1.6962
 1.40000    4.36     2.94   1.37257  1.6965
 1.45000    4.36     2.96   1.37116  1.6965
 1.50000    4.37     2.96   1.36929  1.6966
 1.55000    4.38     2.96   1.36634  1.6970
 1.60000    4.39     2.96   1.36267  1.6971
 1.65000    4.40     2.97   1.35682  1.6972
 1.70000    4.41     2.97   1.34922  1.6969
 1.75000    4.43     2.96   1.34430  1.6962
 1.80000    4.44     2.97   1.34494  1.6954
 1.85000    4.45     2.98   1.34907  1.6949
 1.90000    4.46     2.99   1.35365  1.6948
 1.95000    4.47     2.99   1.35730  1.6947
 2.00000    4.47     2.98   1.35958  1.6949
 2.05000    4.48     2.98   1.36116  1.6948
 2.10000    4.48     2.99   1.36173  1.6950
 2.15000    4.48     2.99   1.36163  1.6950
 2.20000    4.48     3.00   1.36105  1.6953
 2.25000    4.48     3.00   1.36053  1.6952
 2.30000    4.49     3.00   1.36007  1.6951
 2.35000    4.49     3.00   1.36003  1.6949
 2.40000    4.49     3.00   1.35968  1.6951
 2.45000    4.49     2.99   1.36021  1.6951
 2.50000    4.50     2.99   1.36017  1.6950
 2.55000    4.50     3.00   1.36066  1.6951
 2.60000    4.51     3.01   1.36103  1.6949
 2.65000    4.51     3.00   1.36107  1.6950
 2.70000    4.51     3.00   1.36199  1.6950
 2.75000    4.51     3.01   1.36213  1.6950
 2.80000    4.51     3.00   1.36223  1.6950
 2.85000    4.51     3.01   1.36293  1.6950
 2.90000    4.52     3.01   1.36294  1.6951
 2.95000    4.53     3.01   1.36297  1.6950
 3.00000    4.53     3.01   1.36331  1.6951
 3.05000    4.53     3.02   1.36290  1.6950
 3.10000    4.54     3.02   1.36300  1.6950
 3.15000    4.55     3.03   1.36327  1.6952
 3.20000    4.55     3.02   1.36358  1.6950
 3.25000    4.56     3.03   1.36312  1.6952
 3.30000    4.57     3.03   1.36288  1.6953
 3.35000    4.57     3.03   1.36343  1.6952
 3.40000    4.58     3.04   1.36332  1.6953
 3.45000    4.59     3.04   1.36373  1.6952
 3.50000    4.60     3.03   1.36329  1.6950
 3.55000    4.60     3.04   1.36373  1.6952
 3.60000    4.61     3.04   1.36378  1.6952
 3.65000    4.61     3.03   1.36314  1.6953
 3.70000    4.62     3.02   1.36304  1.6955
 3.75000    4.62     3.03   1.36320  1.6955
 3.80000    4.62     3.04   1.36320  1.6954
 3.85000    4.62     3.03   1.36306  1.6954
 3.90000    4.62     3.04   1.36312  1.6953
 3.95000    4.62     3.03   1.36311  1.6954
 4.00000    4.61     3.03   1.36301  1.6954
 4.00000    4.61     3.03   1.36322  1.6954
 3.95000    4.61     3.03   1.36341  1.6955
 3.90000    4.61     3.05   1.36415  1.6954
 3.85000    4.62     3.06   1.36420  1.6954
 3.80000    4.64     3.09   1.36555  1.6954
 3.75000    4.66     3.07   1.36558  1.6954
 3.70000    4.67     3.11   1.36460  1.6955
 3.65000    4.71     3.10   1.36339  1.6955
 3.60000    4.73     3.10   1.36310  1.6954
 3.55000    4.75     3.12   1.36270  1.6955
 3.50000    4.78     3.12   1.36261  1.6953
 3.45000    4.80     3.15   1.36230  1.6954
 3.40000    4.83     3.13   1.36224  1.6955
 3.35000    4.85     3.13   1.36187  1.6955
 3.30000    4.87     3.13   1.36148  1.6955
 3.25000    4.89     3.14   1.36119  1.6953
 3.20000    4.90     3.13   1.36182  1.6951
 3.15000    4.91     3.13   1.36132  1.6952
 3.10000    4.93     3.14   1.36122  1.6951
 3.05000    4.94     3.11   1.36106  1.6950
 3.00000    4.95     3.12   1.36120  1.6956
 2.95000    4.96     3.13   1.36100  1.6956
 2.90000    4.97     3.11   1.36100  1.6954
 2.85000    4.98     3.12   1.36052  1.6955
 2.80000    4.98     3.09   1.35991  1.6954
 2.75000    4.99     3.10   1.35941  1.6952
 2.70000    5.00     3.10   1.35896  1.6951
 2.65000    5.01     3.09   1.35833  1.6952
 2.60000    5.01     3.08   1.35782  1.6952
 2.55000    5.01     3.07   1.35724  1.6951
 2.50000    5.02     3.07   1.35670  1.6952
 2.45000    5.02     3.05   1.35622  1.6953
 2.40000    5.02     3.05   1.35585  1.6952
 2.35000    5.02     3.06   1.35615  1.6952
 2.30000    5.03     3.06   1.35625  1.6954
 2.25000    5.03     3.05   1.35642  1.6952
 2.20000    5.03     3.04   1.35728  1.6955
 2.15000    5.04     3.04   1.35743  1.6955
 2.10000    5.04     3.04   1.35756  1.6952
 2.05000    5.05     3.04   1.35735  1.6952
 2.00000    5.05     3.03   1.35658  1.6950
 1.95000    5.06     3.03   1.35412  1.6950
 1.90000    5.06     3.04   1.35049  1.6951
 1.85000    5.06     3.03   1.34597  1.6951
 1.80000    5.07     3.04   1.34125  1.6957
 1.75000    5.07     3.02   1.33969  1.6963
 1.70000    5.07     3.03   1.34399  1.6970
 1.65000    5.07     3.02   1.35139  1.6973
 1.60000    5.06     3.03   1.35654  1.6974
 1.55000    5.07     3.04   1.36062  1.6970
 1.50000    5.07     3.02   1.36350  1.6970
 1.45000    5.07     3.02   1.36529  1.6968
 1.40000    5.07     3.01   1.36679  1.6968
 1.35000    5.07     3.03   1.36806  1.6966
 1.30000    5.07     3.01   1.36913  1.6966
 1.25000    5.07     3.00   1.37004  1.6965
 1.20000    5.07     3.01   1.37115  1.6963
 1.15000    5.06     3.02   1.37186  1.6964
 1.10000    5.07     3.01   1.37316  1.6964
 1.05000    5.07     3.01   1.37528  1.6963
 1.00000    5.06     3.01   1.37449  1.6962
 0.95000    5.05     3.01   1.37432  1.6960
 0.90000    5.04     3.00   1.37414  1.6958
 0.85000    5.03     3.02   1.37420  1.6957
 0.80000    5.02     2.99   1.37444  1.6957
 0.75000    5.01     3.00   1.37468  1.6958
 0.70000    5.01     2.99   1.37493  1.6958
 0.65000    5.01     3.01   1.37476  1.6957
 0.60000    5.00     2.99   1.37576  1.6956
 0.55000    4.99     3.01   1.37627  1.6957
 0.50000    4.99     2.99   1.37666  1.6956
 0.45000    4.99     2.99   1.37753  1.6953
 0.40000    4.98     3.00   1.37799  1.6953
 0.35000    4.98     2.99   1.37848  1.6954
 0.30000    4.97     3.01   1.37890  1.6954
 0.25000    4.97     2.99   1.37930  1.6952
 0.20000    4.97     2.99   1.37936  1.6953
 0.15000    4.96     2.99   1.37991  1.6952
 0.10000    4.96     3.00   1.38034  1.6951
 0.05000    4.96     2.99   1.38068  1.6951
-0.00000    4.95     2.99   1.38063  1.6950
