 Field[T] Tsmpl[K] Tcntr[K] Signal   Mirror[MM]
 0.00000    4.97     2.99   0.59820  1.6341
 0.05000    4.97     3.00   0.59822  1.6341
 0.10000    4.97     3.00   0.59797  1.6341
 0.15000    4.97     2.99   0.59793  1.6345
 0.20000    4.96     3.01   0.59780  1.6346
 0.25000    4.96     2.99   0.59797  1.6344
 0.30000    4.95     3.01   0.59799  1.6344
 0.35000    4.95     3.00   0.59790  1.6344
 0.40000    4.94     3.01   0.59763  1.6346
 0.45000    4.93     3.00   0.59752  1.6344
 0.50000    4.92     3.00   0.59735  1.6343
 0.55000    4.92     2.99   0.59765  1.6344
 0.60000    4.91     3.00   0.59738  1.6345
 0.65000    4.90     3.01   0.59734  1.6348
 0.70000    4.90     2.99   0.59738  1.6347
 0.75000    4.89     3.00   0.59753  1.6347
 0.80000    4.88     3.00   0.59750  1.6350
 0.85000    4.87     3.00   0.59748  1.6350
 0.90000    4.86     3.00   0.59724  1.6351
 0.95000    4.86     3.00   0.59708  1.6353
 1.00000    4.85     2.99   0.59691  1.6353
 1.05000    4.85     3.01   0.59690  1.6354
 1.10000    4.85     2.99   0.59664  1.6355
 1.15000    4.85     2.99   0.59753  1.6357
 1.20000    4.85     3.00   0.59728  1.6358
 1.25000    4.85     3.00   0.59655  1.6357
 1.30000    4.86     3.01   0.59591  1.6359
 1.35000    4.86     2.99   0.59569  1.6360
 1.40000    4.86     3.00   0.59515  1.6360
 1.45000    4.87     2.99   0.59488  1.6361
 1.50000    4.87     2.99   0.59429  1.6363
 1.55000    4.88     3.00   0.59364  1.6362
 1.60000    4.88     2.99   0.59309  1.6364
 1.65000    4.89     3.00   0.59256  1.6365
 1.70000    4.89     3.00   0.59104  1.6365
 1.75000    4.90     3.00   0.58885  1.6368
 1.80000    4.90     3.00   0.58574  1.6368
 1.85000    4.90     3.00   0.58234  1.6365
 1.90000    4.90     3.00   0.58157  1.6356
 1.95000    4.89     3.00   0.58283  1.6350
 2.00000    4.89     3.01   0.58506  1.6346
 2.05000    4.89     3.00   0.58691  1.6346
 2.10000    4.88     2.99   0.58851  1.6347
 2.15000    4.88     3.01   0.58930  1.6348
 2.20000    4.88     2.99   0.59011  1.6350
 2.25000    4.88     2.99   0.59010  1.6350
 2.30000    4.88     3.01   0.59005  1.6350
 2.35000    4.87     2.99   0.58968  1.6353
 2.40000    4.86     2.99   0.58935  1.6352
 2.45000    4.86     3.00   0.58895  1.6352
 2.50000    4.85     3.00   0.58886  1.6352
 2.55000    4.85     3.00   0.58873  1.6352
 2.60000    4.85     3.00   0.58866  1.6350
 2.65000    4.85     2.99   0.58889  1.6351
 2.70000    4.84     3.00   0.58922  1.6349
 2.75000    4.84     3.01   0.58967  1.6349
 2.80000    4.84     3.01   0.58985  1.6349
 2.85000    4.83     3.00   0.58996  1.6349
 2.90000    4.82     3.00   0.59015  1.6348
 2.95000    4.82     2.99   0.59015  1.6350
 3.00000    4.81     3.01   0.59051  1.6350
 3.05000    4.81     2.99   0.59048  1.6351
 3.10000    4.80     3.00   0.59058  1.6349
 3.15000    4.80     3.01   0.59096  1.6351
 3.20000    4.81     3.00   0.59099  1.6350
 3.25000    4.81     3.01   0.59096  1.6352
 3.30000    4.82     3.00   0.59126  1.6353
 3.35000    4.82     3.00   0.59118  1.6351
 3.40000    4.84     3.00   0.59118  1.6352
 3.45000    4.84     3.02   0.59111  1.6353
 3.50000    4.86     3.00   0.59107  1.6352
 3.55000    4.87     3.01   0.59095  1.6352
 3.60000    4.89     3.01   0.59089  1.6353
 3.65000    4.90     3.01   0.59134  1.6354
 3.70000    4.91     3.03   0.59114  1.6354
 3.75000    4.93     3.01   0.59117  1.6355
 3.80000    4.94     3.01   0.59081  1.6354
 3.85000    4.95     3.01   0.59072  1.6356
 3.90000    4.96     3.02   0.59077  1.6356
 3.95000    4.97     3.01   0.59091  1.6355
 4.00000    4.99     3.01   0.59066  1.6355
 4.05000    4.99     3.02   0.59059  1.6356
 4.10000    5.02     3.01   0.59067  1.6358
 4.15000    5.03     3.02   0.59056  1.6359
 4.20000    5.05     3.01   0.59044  1.6358
 4.25000    5.07     3.01   0.59027  1.6359
 4.30000    5.08     3.03   0.59020  1.6360
 4.35000    5.10     3.01   0.59005  1.6359
 4.40000    5.11     3.01   0.58975  1.6359
 4.45000    5.11     3.03   0.58980  1.6360
 4.50000    5.13     3.00   0.58965  1.6361
 4.55000    5.13     3.01   0.58965  1.6361
 4.60000    5.13     3.00   0.58944  1.6360
 4.65000    5.14     3.01   0.58925  1.6361
 4.70000    5.14     3.02   0.58926  1.6362
 4.75000    5.15     3.00   0.58893  1.6362
 4.80000    5.16     3.02   0.58920  1.6362
 4.85000    5.17     3.03   0.58902  1.6364
 4.90000    5.18     3.01   0.58915  1.6364
 4.95000    5.18     3.02   0.58907  1.6364
 5.00000    5.19     3.01   0.58890  1.6363
 5.05000    5.19     3.01   0.58868  1.6362
 5.10000    5.19     3.03   0.58903  1.6364
 5.15000    5.19     3.01   0.58903  1.6364
 5.20000    5.19     3.01   0.58901  1.6363
 5.25000    5.18     3.01   0.58886  1.6364
 5.30000    5.18     3.01   0.58861  1.6365
 5.35000    5.17     3.00   0.58871  1.6365
 5.40000    5.16     3.01   0.58852  1.6365
 5.45000    5.15     3.02   0.58848  1.6364
 5.50000    5.14     3.00   0.58840  1.6364
 5.55000    5.14     3.02   0.58837  1.6366
 5.60000    5.13     3.02   0.58822  1.6366
 5.65000    5.13     3.01   0.58795  1.6366
 5.70000    5.13     3.01   0.58790  1.6367
 5.75000    5.13     3.02   0.58788  1.6366
 5.80000    5.13     3.00   0.58766  1.6367
 5.85000    5.13     3.01   0.58752  1.6366
 5.90000    5.14     3.02   0.58734  1.6367
 5.95000    5.14     3.01   0.58712  1.6370
 6.00000    5.15     3.02   0.58702  1.6369
 6.05000    5.17     3.00   0.58691  1.6369
 6.10000    5.17     3.01   0.58677  1.6369
 6.15000    5.18     3.00   0.58660  1.6371
 6.20000    5.19     3.02   0.58668  1.6370
 6.25000    5.21     3.00   0.58659  1.6371
 6.30000    5.21     3.00   0.58645  1.6370
 6.35000    5.22     3.00   0.58640  1.6369
 6.40000    5.24     3.02   0.58626  1.6369
 6.45000    5.24     3.00   0.58616  1.6368
 6.50000    5.25     3.00   0.58606  1.6371
 6.55000    5.26     3.01   0.58607  1.6371
 6.60000    5.27     3.01   0.58605  1.6372
 6.65000    5.28     3.01   0.58577  1.6373
 6.70000    5.29     3.01   0.58602  1.6373
 6.75000    5.30     3.03   0.58584  1.6373
 6.80000    5.30     3.00   0.58553  1.6373
 6.85000    5.30     3.00   0.58558  1.6374
 6.90000    5.30     2.99   0.58532  1.6375
 6.95000    5.30     3.01   0.58532  1.6374
 7.00000    5.31     3.01   0.58516  1.6373
 7.00000    5.31     3.00   0.58519  1.6373
 6.95000    5.31     3.00   0.58510  1.6374
 6.90000    5.31     3.01   0.58527  1.6373
 6.85000    5.31     3.00   0.58536  1.6373
 6.80000    5.31     3.02   0.58559  1.6374
 6.75000    5.31     3.01   0.58593  1.6373
 6.70000    5.30     3.00   0.58615  1.6371
 6.65000    5.29     3.02   0.58616  1.6373
 6.60000    5.29     3.00   0.58642  1.6375
 6.55000    5.28     3.00   0.58641  1.6373
 6.50000    5.27     3.00   0.58643  1.6374
 6.45000    5.26     3.03   0.58650  1.6373
 6.40000    5.26     3.02   0.58671  1.6373
 6.35000    5.25     3.03   0.58659  1.6372
 6.30000    5.25     3.02   0.58660  1.6372
 6.25000    5.25     3.01   0.58647  1.6374
 6.20000    5.24     3.01   0.58647  1.6373
 6.15000    5.24     3.01   0.58653  1.6371
 6.10000    5.23     3.02   0.58660  1.6372
 6.05000    5.23     3.01   0.58665  1.6373
 6.00000    5.23     3.01   0.58682  1.6371
 5.95000    5.23     3.01   0.58682  1.6372
 5.90000    5.23     3.01   0.58691  1.6373
 5.85000    5.23     3.02   0.58710  1.6373
 5.80000    5.23     3.00   0.58699  1.6371
 5.75000    5.23     3.01   0.58744  1.6371
 5.70000    5.23     3.00   0.58748  1.6370
 5.65000    5.23     3.00   0.58732  1.6372
 5.60000    5.23     3.01   0.58745  1.6371
 5.55000    5.23     3.00   0.58755  1.6370
 5.50000    5.22     3.00   0.58777  1.6369
 5.45000    5.22     3.01   0.58766  1.6370
 5.40000    5.22     3.01   0.58785  1.6371
 5.35000    5.22     2.99   0.58793  1.6370
 5.30000    5.22     3.00   0.58786  1.6370
 5.25000    5.22     3.00   0.58815  1.6369
 5.20000    5.22     3.00   0.58827  1.6371
 5.15000    5.21     3.01   0.58807  1.6372
 5.10000    5.21     3.00   0.58821  1.6369
 5.05000    5.20     3.01   0.58832  1.6368
 5.00000    5.20     2.99   0.58842  1.6368
 4.95000    5.20     2.99   0.58853  1.6367
 4.90000    5.20     3.01   0.58837  1.6369
 4.85000    5.20     3.00   0.58856  1.6369
 4.80000    5.20     2.99   0.58842  1.6367
 4.75000    5.20     2.99   0.58858  1.6367
 4.70000    5.20     3.00   0.58845  1.6370
 4.65000    5.20     3.01   0.58868  1.6369
 4.60000    5.20     3.00   0.58848  1.6368
 4.55000    5.20     3.00   0.58878  1.6368
 4.50000    5.20     3.03   0.58872  1.6368
 4.45000    5.21     3.03   0.58858  1.6366
 4.40000    5.22     3.01   0.58853  1.6366
 4.35000    5.22     3.00   0.58834  1.6370
 4.30000    5.23     3.01   0.58818  1.6370
 4.25000    5.24     3.02   0.58843  1.6367
 4.20000    5.24     3.01   0.58818  1.6366
 4.15000    5.24     3.01   0.58780  1.6366
 4.10000    5.24     2.99   0.58815  1.6366
 4.05000    5.24     3.02   0.58843  1.6366
 4.00000    5.25     3.00   0.58853  1.6365
 3.95000    5.25     3.00   0.58826  1.6364
 3.90000    5.25     3.00   0.58835  1.6363
 3.85000    5.25     3.00   0.58833  1.6364
 3.80000    5.25     3.01   0.58842  1.6367
 3.75000    5.25     3.00   0.58856  1.6367
 3.70000    5.25     3.00   0.58892  1.6363
 3.65000    5.25     3.01   0.58864  1.6363
 3.60000    5.26     3.00   0.58844  1.6362
 3.55000    5.26     3.01   0.58859  1.6364
 3.50000    5.26     3.01   0.58841  1.6363
 3.45000    5.26     3.00   0.58827  1.6362
 3.40000    5.26     3.00   0.58813  1.6363
 3.35000    5.27     3.02   0.58829  1.6361
 3.30000    5.27     3.00   0.58853  1.6361
 3.25000    5.27     2.99   0.58818  1.6362
 3.20000    5.28     3.02   0.58809  1.6361
 3.15000    5.28     2.99   0.58791  1.6361
 3.10000    5.28     2.99   0.58768  1.6364
 3.05000    5.28     2.99   0.58771  1.6362
 3.00000    5.28     3.00   0.58784  1.6359
 2.95000    5.28     3.00   0.58798  1.6359
 2.90000    5.29     3.00   0.58762  1.6359
 2.85000    5.29     3.00   0.58717  1.6358
 2.80000    5.29     3.00   0.58694  1.6358
 2.75000    5.29     3.00   0.58672  1.6359
 2.70000    5.29     3.00   0.58652  1.6359
 2.65000    5.29     3.00   0.58650  1.6360
 2.60000    5.29     3.02   0.58620  1.6360
 2.55000    5.29     3.00   0.58627  1.6359
 2.50000    5.29     3.01   0.58657  1.6360
 2.45000    5.29     3.00   0.58671  1.6361
 2.40000    5.28     3.00   0.58677  1.6361
 2.35000    5.28     3.00   0.58709  1.6359
 2.30000    5.28     3.01   0.58737  1.6361
 2.25000    5.28     2.99   0.58749  1.6362
 2.20000    5.27     3.01   0.58761  1.6361
 2.15000    5.27     3.00   0.58690  1.6360
 2.10000    5.26     3.00   0.58583  1.6358
 2.05000    5.26     2.99   0.58434  1.6356
 2.00000    5.25     3.00   0.58257  1.6358
 1.95000    5.24     3.00   0.58079  1.6362
 1.90000    5.23     3.00   0.57892  1.6369
 1.85000    5.23     3.02   0.57962  1.6377
 1.80000    5.22     3.00   0.58283  1.6383
 1.75000    5.21     3.00   0.58594  1.6382
 1.70000    5.20     3.00   0.58833  1.6381
 1.65000    5.19     3.01   0.58972  1.6380
 1.60000    5.19     3.01   0.59074  1.6377
 1.55000    5.18     2.99   0.59142  1.6376
 1.50000    5.17     3.00   0.59191  1.6374
 1.45000    5.16     3.01   0.59249  1.6374
 1.40000    5.16     2.99   0.59278  1.6374
 1.35000    5.15     2.99   0.59293  1.6371
 1.30000    5.14     3.01   0.59311  1.6372
 1.25000    5.14     2.99   0.59358  1.6372
 1.20000    5.14     3.00   0.59359  1.6370
 1.15000    5.13     3.00   0.59398  1.6370
 1.10000    5.13     3.01   0.59422  1.6369
 1.05000    5.13     3.00   0.59426  1.6367
 1.00000    5.12     3.00   0.59458  1.6368
 0.95000    5.12     3.00   0.59491  1.6367
 0.90000    5.11     3.00   0.59505  1.6369
 0.85000    5.11     3.00   0.59525  1.6368
 0.80000    5.09     2.99   0.59545  1.6366
 0.75000    5.08     3.02   0.59568  1.6366
 0.70000    5.08     3.00   0.59577  1.6365
 0.65000    5.06     2.99   0.59611  1.6364
 0.60000    5.05     3.00   0.59609  1.6363
 0.55000    5.05     3.00   0.59623  1.6361
 0.50000    5.05     2.99   0.59654  1.6361
 0.45000    5.04     3.00   0.59659  1.6361
 0.40000    5.04     3.01   0.59671  1.6360
 0.35000    5.03     2.99   0.59703  1.6360
 0.30000    5.02     2.99   0.59713  1.6360
 0.25000    5.02     2.99   0.59728  1.6358
 0.20000    5.01     3.00   0.59748  1.6356
 0.15000    5.01     3.00   0.59766  1.6357
 0.10000    5.00     3.00   0.59775  1.6356
 0.05000    4.99     3.00   0.59814  1.6357
-0.00000    4.98     3.01   0.59792  1.6357
