 Field[T] Tsmpl[K] Tcntr[K] Signal   Mirror[MM]
 0.00000    4.78     2.95   0.77312  1.7425
 0.05000    4.77     2.96   0.77283  1.7424
 0.10000    4.76     2.94   0.77245  1.7423
 0.15000    4.75     2.94   0.77181  1.7425
 0.20000    4.74     2.95   0.77189  1.7427
 0.25000    4.73     2.94   0.77117  1.7428
 0.30000    4.72     2.95   0.77115  1.7426
 0.35000    4.70     2.94   0.77071  1.7428
 0.40000    4.69     2.94   0.77049  1.7429
 0.45000    4.67     2.95   0.77014  1.7430
 0.50000    4.66     2.96   0.77021  1.7432
 0.55000    4.65     2.93   0.76982  1.7432
 0.60000    4.62     2.93   0.76959  1.7434
 0.65000    4.60     2.94   0.76963  1.7434
 0.70000    4.59     2.94   0.76925  1.7434
 0.75000    4.58     2.95   0.76912  1.7435
 0.80000    4.56     2.91   0.76908  1.7438
 0.85000    4.53     2.92   0.76881  1.7439
 0.90000    4.52     2.92   0.76879  1.7439
 0.95000    4.51     2.92   0.76791  1.7439
 1.00000    4.49     2.92   0.76695  1.7442
 1.05000    4.48     2.92   0.76639  1.7440
 1.10000    4.47     2.93   0.76601  1.7440
 1.15000    4.46     2.89   0.76569  1.7441
 1.20000    4.44     2.90   0.76504  1.7443
 1.25000    4.43     2.91   0.76454  1.7443
 1.30000    4.42     2.92   0.76416  1.7444
 1.35000    4.41     2.88   0.76245  1.7446
 1.40000    4.41     2.91   0.76100  1.7448
 1.45000    4.41     2.92   0.75876  1.7448
 1.50000    4.41     2.94   0.75544  1.7448
 1.55000    4.42     2.93   0.75096  1.7448
 1.60000    4.43     2.94   0.74699  1.7442
 1.65000    4.44     2.92   0.74632  1.7432
 1.70000    4.44     2.93   0.74813  1.7427
 1.75000    4.45     2.94   0.75091  1.7423
 1.80000    4.46     2.94   0.75318  1.7419
 1.85000    4.47     2.96   0.75487  1.7421
 1.90000    4.49     2.95   0.75563  1.7422
 1.95000    4.50     2.96   0.75615  1.7423
 2.00000    4.51     2.97   0.75627  1.7425
 2.05000    4.53     2.96   0.75628  1.7424
 2.10000    4.54     2.97   0.75647  1.7423
 2.15000    4.55     2.99   0.75666  1.7422
 2.20000    4.57     2.98   0.75677  1.7422
 2.25000    4.57     2.98   0.75643  1.7422
 2.30000    4.58     2.98   0.75642  1.7422
 2.35000    4.59     2.99   0.75657  1.7421
 2.40000    4.60     2.99   0.75690  1.7420
 2.45000    4.60     2.99   0.75739  1.7418
 2.50000    4.60     3.01   0.75784  1.7419
 2.55000    4.60     2.99   0.75807  1.7420
 2.60000    4.60     3.00   0.75908  1.7419
 2.65000    4.61     2.99   0.75930  1.7418
 2.70000    4.61     2.99   0.75923  1.7418
 2.75000    4.61     3.00   0.75921  1.7420
 2.80000    4.62     3.00   0.75892  1.7420
 2.85000    4.63     3.00   0.75930  1.7421
 2.90000    4.63     3.01   0.75964  1.7418
 2.95000    4.64     3.00   0.75995  1.7419
 3.00000    4.64     3.01   0.76045  1.7419
 3.05000    4.64     3.00   0.76021  1.7419
 3.10000    4.65     3.00   0.75978  1.7419
 3.15000    4.66     3.01   0.75987  1.7421
 3.20000    4.66     3.01   0.75972  1.7422
 3.25000    4.66     3.02   0.75961  1.7422
 3.30000    4.67     3.02   0.75977  1.7422
 3.35000    4.68     3.02   0.75968  1.7421
 3.40000    4.68     3.03   0.75977  1.7421
 3.45000    4.69     3.02   0.75967  1.7421
 3.50000    4.70     3.03   0.75939  1.7421
 3.55000    4.70     3.04   0.75950  1.7423
 3.60000    4.70     3.02   0.75930  1.7424
 3.65000    4.71     3.03   0.75964  1.7424
 3.70000    4.71     3.03   0.75967  1.7423
 3.75000    4.72     3.02   0.76009  1.7421
 3.80000    4.72     3.03   0.76026  1.7423
 3.85000    4.73     3.03   0.76009  1.7423
 3.90000    4.74     3.04   0.76053  1.7423
 3.95000    4.75     3.03   0.76102  1.7424
 4.00000    4.75     3.02   0.76087  1.7423
 4.00000    4.76     3.03   0.76066  1.7422
 3.95000    4.76     3.04   0.76069  1.7423
 3.90000    4.77     3.03   0.76134  1.7422
 3.85000    4.77     3.05   0.76098  1.7424
 3.80000    4.78     3.04   0.76104  1.7425
 3.75000    4.79     3.06   0.76068  1.7424
 3.70000    4.80     3.08   0.76058  1.7424
 3.65000    4.82     3.09   0.76036  1.7425
 3.60000    4.84     3.08   0.76030  1.7424
 3.55000    4.86     3.11   0.76023  1.7425
 3.50000    4.89     3.10   0.76031  1.7425
 3.45000    4.91     3.13   0.76021  1.7424
 3.40000    4.93     3.11   0.76002  1.7424
 3.35000    4.94     3.11   0.75967  1.7424
 3.30000    4.95     3.11   0.76025  1.7424
 3.25000    4.97     3.12   0.76003  1.7425
 3.20000    4.99     3.10   0.76001  1.7425
 3.15000    4.99     3.09   0.76003  1.7425
 3.10000    5.01     3.09   0.75998  1.7422
 3.05000    5.02     3.11   0.76021  1.7424
 3.00000    5.03     3.09   0.76006  1.7423
 2.95000    5.03     3.09   0.76034  1.7424
 2.90000    5.04     3.08   0.76027  1.7424
 2.85000    5.05     3.09   0.76009  1.7422
 2.80000    5.06     3.09   0.76015  1.7423
 2.75000    5.07     3.08   0.76041  1.7422
 2.70000    5.07     3.07   0.76047  1.7423
 2.65000    5.07     3.07   0.75964  1.7422
 2.60000    5.08     3.05   0.75910  1.7421
 2.55000    5.08     3.05   0.75850  1.7421
 2.50000    5.09     3.09   0.75818  1.7421
 2.45000    5.10     3.06   0.75773  1.7422
 2.40000    5.10     3.05   0.75748  1.7422
 2.35000    5.10     3.05   0.75713  1.7422
 2.30000    5.11     3.06   0.75675  1.7423
 2.25000    5.11     3.04   0.75644  1.7422
 2.20000    5.11     3.03   0.75617  1.7425
 2.15000    5.11     3.04   0.75587  1.7424
 2.10000    5.11     3.04   0.75619  1.7424
 2.05000    5.12     3.03   0.75626  1.7424
 2.00000    5.12     3.03   0.75693  1.7426
 1.95000    5.13     3.04   0.75702  1.7425
 1.90000    5.13     3.02   0.75655  1.7426
 1.85000    5.13     3.02   0.75588  1.7426
 1.80000    5.13     3.02   0.75468  1.7425
 1.75000    5.13     3.02   0.75273  1.7425
 1.70000    5.13     3.01   0.75078  1.7428
 1.65000    5.12     3.02   0.74825  1.7435
 1.60000    5.12     3.01   0.74855  1.7445
 1.55000    5.11     3.02   0.75230  1.7451
 1.50000    5.11     3.02   0.75758  1.7453
 1.45000    5.10     3.01   0.75992  1.7452
 1.40000    5.10     3.01   0.76184  1.7451
 1.35000    5.10     3.00   0.76276  1.7448
 1.30000    5.10     3.02   0.76382  1.7446
 1.25000    5.09     3.00   0.76422  1.7445
 1.20000    5.09     3.01   0.76476  1.7446
 1.15000    5.08     3.01   0.76515  1.7443
 1.10000    5.07     3.01   0.76567  1.7443
 1.05000    5.06     2.99   0.76605  1.7442
 1.00000    5.05     2.99   0.76640  1.7441
 0.95000    5.04     3.00   0.76669  1.7440
 0.90000    5.04     3.01   0.76692  1.7439
 0.85000    5.04     3.01   0.76733  1.7436
 0.80000    5.04     3.00   0.76793  1.7436
 0.75000    5.03     3.00   0.76818  1.7435
 0.70000    5.03     3.00   0.76870  1.7435
 0.65000    5.03     3.01   0.76890  1.7434
 0.60000    5.03     3.00   0.76928  1.7434
 0.55000    5.02     2.99   0.76952  1.7432
 0.50000    5.01     3.01   0.76980  1.7432
 0.45000    5.01     2.98   0.77013  1.7431
 0.40000    5.00     2.99   0.77013  1.7431
 0.35000    5.00     3.00   0.77041  1.7430
 0.30000    4.99     3.01   0.77058  1.7430
 0.25000    4.99     2.98   0.77098  1.7428
 0.20000    4.99     2.99   0.77099  1.7430
 0.15000    4.98     2.99   0.77113  1.7429
 0.10000    4.98     2.99   0.77133  1.7426
 0.05000    4.97     3.01   0.77164  1.7424
-0.00000    4.97     2.98   0.77194  1.7427
