 Field[T] Tsmpl[K] Tcntr[K] Signal   Mirror[MM]
 0.00000    1.76     1.76   0.34684  -10.8801
 0.05000    1.76     1.76   0.34659  -10.8797
 0.10000    1.76     1.76   0.34574  -10.8815
 0.15000    1.76     1.76   0.34485  -10.8806
 0.20000    1.76     1.76   0.34408  -10.8851
 0.25000    1.76     1.76   0.34242  -10.8869
 0.30000    1.76     1.76   0.34200  -10.8921
 0.35000    1.76     1.76   0.34349  -10.8980
 0.40000    1.76     1.76   0.34434  -10.9033
 0.45000    1.76     1.76   0.34582  -10.9065
 0.50000    1.76     1.76   0.34735  -10.9109
 0.55000    1.76     1.76   0.34858  -10.9118
 0.60000    1.76     1.76   0.34999  -10.9143
 0.65000    1.76     1.76   0.35143  -10.9146
 0.70000    1.76     1.76   0.35284  -10.9159
 0.75000    1.76     1.76   0.35419  -10.9166
 0.80000    1.76     1.76   0.35738  -10.9178
 0.85000    1.76     1.76   0.35708  -10.9181
 0.90000    1.76     1.76   0.35823  -10.9181
 0.95000    1.76     1.76   0.35925  -10.9164
 1.00000    1.76     1.76   0.36031  -10.9161
 1.05000    1.76     1.76   0.36091  -10.9147
 1.10000    1.76     1.76   0.36265  -10.9150
 1.15000    1.76     1.76   0.36227  -10.9129
 1.20000    1.76     1.76   0.36346  -10.9137
 1.25000    1.76     1.76   0.36414  -10.9120
 1.30000    1.76     1.76   0.36524  -10.9111
 1.35000    1.76     1.76   0.36431  -10.9106
 1.40000    1.76     1.76   0.36499  -10.9091
 1.45000    1.76     1.76   0.36520  -10.9084
 1.50000    1.76     1.76   0.36499  -10.9076
 1.55000    1.76     1.76   0.36541  -10.9071
 1.60000    1.76     1.76   0.36609  -10.9062
 1.65000    1.76     1.76   0.36571  -10.9061
 1.70000    1.76     1.76   0.36580  -10.9053
 1.75000    1.76     1.76   0.36639  -10.9050
 1.80000    1.76     1.76   0.36622  -10.9046
 1.85000    1.76     1.76   0.36644  -10.9048
 1.90000    1.76     1.76   0.36648  -10.9039
 1.95000    1.76     1.76   0.36648  -10.9035
 2.00000    1.76     1.76   0.36635  -10.9031
 2.05000    1.76     1.76   0.36724  -10.9025
 2.10000    1.76     1.76   0.36580  -10.9022
 2.15000    1.76     1.76   0.36661  -10.9024
 2.20000    1.76     1.76   0.36682  -10.9026
 2.25000    1.76     1.76   0.36682  -10.9018
 2.30000    1.76     1.76   0.36665  -10.9020
 2.35000    1.76     1.76   0.36614  -10.9008
 2.40000    1.76     1.76   0.36678  -10.9015
 2.45000    1.76     1.76   0.36682  -10.9005
 2.50000    1.76     1.76   0.36669  -10.9001
 2.55000    1.76     1.76   0.36737  -10.9005
 2.60000    1.76     1.76   0.36627  -10.8994
 2.65000    1.76     1.76   0.36728  -10.8995
 2.70000    1.76     1.76   0.36716  -10.8996
 2.75000    1.76     1.76   0.36661  -10.9002
 2.80000    1.76     1.76   0.36724  -10.9001
 2.85000    1.76     1.76   0.36678  -10.8992
 2.90000    1.76     1.76   0.36618  -10.8979
 2.95000    1.76     1.76   0.36635  -10.8987
 3.00000    1.76     1.76   0.36673  -10.8979
 3.00000    1.76     1.76   0.36601  -10.8989
 2.95000    1.76     1.76   0.36724  -10.8990
 2.90000    1.76     1.76   0.36805  -10.9002
 2.85000    1.76     1.76   0.36741  -10.9011
 2.80000    1.76     1.76   0.36673  -10.8995
 2.75000    1.76     1.76   0.36575  -10.8958
 2.70000    1.76     1.76   0.36741  -10.8989
 2.65000    1.76     1.76   0.36669  -10.8987
 2.60000    1.76     1.76   0.36754  -10.9001
 2.55000    1.76     1.76   0.36809  -10.9014
 2.50000    1.76     1.76   0.36631  -10.9017
 2.45000    1.76     1.76   0.36754  -10.9014
 2.40000    1.76     1.76   0.36750  -10.9020
 2.35000    1.76     1.76   0.36644  -10.9015
 2.30000    1.76     1.76   0.36678  -10.9023
 2.25000    1.76     1.76   0.36707  -10.9019
 2.20000    1.76     1.76   0.36627  -10.9018
 2.15000    1.76     1.76   0.36622  -10.9016
 2.10000    1.76     1.76   0.36661  -10.9007
 2.05000    1.76     1.76   0.36686  -10.9038
 2.00000    1.76     1.76   0.36695  -10.9038
 1.95000    1.76     1.76   0.36682  -10.9024
 1.90000    1.76     1.76   0.36622  -10.9050
 1.85000    1.76     1.76   0.36669  -10.9059
 1.80000    1.76     1.76   0.36520  -10.9026
 1.75000    1.76     1.76   0.36558  -10.9042
 1.70000    1.76     1.76   0.36622  -10.9060
 1.65000    1.76     1.76   0.36605  -10.9061
 1.60000    1.76     1.76   0.36541  -10.9066
 1.55000    1.76     1.76   0.36529  -10.9075
 1.50000    1.76     1.76   0.36563  -10.9081
 1.45000    1.76     1.76   0.36537  -10.9083
 1.40000    1.76     1.76   0.36486  -10.9108
 1.35000    1.76     1.76   0.36465  -10.9108
 1.30000    1.76     1.76   0.36448  -10.9108
 1.25000    1.76     1.76   0.36321  -10.9127
 1.20000    1.76     1.76   0.36261  -10.9116
 1.15000    1.76     1.76   0.36299  -10.9136
 1.10000    1.76     1.76   0.36235  -10.9146
 1.05000    1.76     1.76   0.36117  -10.9144
 1.00000    1.76     1.76   0.36006  -10.9155
 0.95000    1.76     1.76   0.35947  -10.9168
 0.90000    1.76     1.76   0.35798  -10.9164
 0.85000    1.76     1.76   0.35611  -10.9168
 0.80000    1.76     1.76   0.35492  -10.9153
 0.75000    1.76     1.76   0.35369  -10.9160
 0.70000    1.76     1.76   0.35258  -10.9162
 0.65000    1.76     1.76   0.35147  -10.9150
 0.60000    1.76     1.76   0.34858  -10.9118
 0.55000    1.76     1.76   0.34752  -10.9107
 0.50000    1.76     1.76   0.34510  -10.9075
 0.45000    1.76     1.76   0.34425  -10.9044
 0.40000    1.76     1.76   0.34285  -10.9000
 0.35000    1.76     1.76   0.34115  -10.8943
 0.30000    1.76     1.76   0.34093  -10.8907
 0.25000    1.76     1.76   0.34017  -10.8833
 0.20000    1.76     1.76   0.34204  -10.8804
 0.15000    1.76     1.76   0.34285  -10.8760
 0.10000    1.76     1.76   0.34336  -10.8747
 0.05000    1.76     1.76   0.34421  -10.8733
 -0.00000    1.76     1.76   0.34446  -10.8724
