 Field[T] Tsmpl[K] Tcntr[K] Signal
 4.00000    1.86     1.88   6.74460
 3.95000    1.86     1.88   6.74750
 3.90000    1.86     1.88   6.74470
 3.85000    1.86     1.88   6.75130
 3.80000    1.86     1.88   6.75150
 3.75000    1.86     1.88   6.75120
 3.70000    1.86     1.88   6.75470
 3.65000    1.86     1.88   6.74720
 3.60000    1.86     1.88   6.74870
 3.55000    1.86     1.88   6.74790
 3.50000    1.86     1.88   6.74620
 3.45000    1.86     1.88   6.74390
 3.40000    1.86     1.88   6.74740
 3.35000    1.86     1.88   6.74240
 3.30000    1.86     1.88   6.74100
 3.25000    1.86     1.88   6.74000
 3.20000    1.86     1.88   6.73850
 3.15000    1.86     1.88   6.73800
 3.10000    1.86     1.88   6.73480
 3.05000    1.86     1.88   6.73180
 3.00000    1.86     1.87   6.72410
 2.95000    1.86     1.87   6.72200
 2.90000    1.86     1.87   6.71590
 2.85000    1.85     1.87   6.71020
 2.80000    1.85     1.87   6.70530
 2.75000    1.85     1.87   6.70010
 2.70000    1.85     1.87   6.69660
 2.65000    1.85     1.87   6.69710
 2.60000    1.85     1.87   6.69990
 2.55000    1.85     1.87   6.70700
 2.50000    1.85     1.87   6.71180
 2.45000    1.85     1.87   6.71620
 2.40000    1.85     1.87   6.71940
 2.35000    1.85     1.87   6.71730
 2.30000    1.85     1.87   6.70240
 2.25000    1.85     1.87   6.69730
 2.20000    1.85     1.87   6.69470
 2.15000    1.85     1.87   6.70060
 2.10000    1.85     1.87   6.72620
 2.05000    1.85     1.87   6.75190
 2.00000    1.85     1.87   6.76290
 1.95000    1.84     1.87   6.77040
 1.90000    1.84     1.87   6.77540
 1.85000    1.84     1.87   6.78130
 1.80000    1.84     1.87   6.79180
 1.75000    1.84     1.86   6.79680
 1.70000    1.84     1.86   6.79660
 1.65000    1.84     1.86   6.79050
 1.60000    1.84     1.86   6.78110
 1.55000    1.84     1.86   6.77820
 1.50000    1.84     1.86   6.77930
 1.45000    1.84     1.86   6.77940
 1.40000    1.84     1.86   6.78550
 1.35000    1.84     1.86   6.79030
 1.30000    1.84     1.86   6.79570
 1.25000    1.84     1.86   6.80350
 1.20000    1.84     1.86   6.79400
 1.15000    1.84     1.86   6.79200
 1.10000    1.84     1.86   6.79620
 1.05000    1.84     1.86   6.80320
 1.00000    1.84     1.86   6.80550
 0.95000    1.84     1.86   6.81180
 0.90000    1.84     1.86   6.80680
 0.85000    1.83     1.86   6.80220
 0.80000    1.83     1.86   6.79160
 0.75000    1.83     1.86   6.78610
 0.70000    1.83     1.86   6.78290
 0.65000    1.83     1.86   6.77790
 0.60000    1.83     1.86   6.77250
 0.55000    1.83     1.86   6.76510
 0.50000    1.83     1.86   6.76150
 0.45000    1.83     1.86   6.75260
 0.40000    1.83     1.86   6.75440
 0.35000    1.83     1.86   6.75280
 0.30000    1.83     1.86   6.74870
 0.25000    1.83     1.86   6.74340
 0.20000    1.83     1.86   6.74480
 0.15000    1.83     1.86   6.73810
 0.10000    1.83     1.86   6.73940
 0.05000    1.83     1.86   6.74180
-0.00000    1.83     1.86   6.74530
