 Field[T] Tsmpl[K] Tcntr[K] Signal
 0.00000    1.83     1.86   5.22770
 0.05000    1.83     1.86   5.22610
 0.10000    1.83     1.86   5.22400
 0.15000    1.83     1.86   5.22190
 0.20000    1.83     1.86   5.21820
 0.25000    1.83     1.86   5.21820
 0.30000    1.83     1.86   5.21710
 0.35000    1.83     1.86   5.21180
 0.40000    1.83     1.85   5.20610
 0.45000    1.83     1.85   5.20610
 0.50000    1.83     1.85   5.19990
 0.55000    1.83     1.85   5.19320
 0.60000    1.83     1.85   5.18510
 0.65000    1.83     1.85   5.17660
 0.70000    1.83     1.85   5.16780
 0.75000    1.83     1.85   5.16210
 0.80000    1.83     1.85   5.15710
 0.85000    1.83     1.85   5.15790
 0.90000    1.83     1.85   5.15490
 0.95000    1.83     1.85   5.16120
 1.00000    1.83     1.85   5.16650
 1.05000    1.83     1.85   5.17280
 1.10000    1.83     1.85   5.17640
 1.15000    1.83     1.85   5.18590
 1.20000    1.83     1.85   5.18780
 1.25000    1.83     1.85   5.18740
 1.30000    1.83     1.85   5.18000
 1.35000    1.83     1.85   5.17010
 1.40000    1.83     1.85   5.16660
 1.45000    1.83     1.86   5.17330
 1.50000    1.83     1.86   5.18450
 1.55000    1.83     1.86   5.19530
 1.60000    1.83     1.86   5.20000
 1.65000    1.83     1.86   5.20260
 1.70000    1.83     1.86   5.20520
 1.75000    1.83     1.86   5.21250
 1.80000    1.84     1.86   5.22250
 1.85000    1.84     1.86   5.22850
 1.90000    1.84     1.86   5.21890
 1.95000    1.84     1.86   5.20920
 2.00000    1.84     1.86   5.20210
 2.05000    1.84     1.86   5.20930
 2.10000    1.84     1.86   5.21880
 2.15000    1.84     1.86   5.23320
 2.20000    1.84     1.86   5.24700
 2.25000    1.84     1.86   5.25900
 2.30000    1.84     1.86   5.26670
 2.35000    1.84     1.86   5.27130
 2.40000    1.84     1.86   5.27280
 2.45000    1.84     1.86   5.27540
 2.50000    1.84     1.86   5.27200
 2.55000    1.84     1.86   5.27260
 2.60000    1.85     1.87   5.27230
 2.65000    1.85     1.87   5.27780
 2.70000    1.85     1.87   5.27880
 2.75000    1.85     1.87   5.27970
 2.80000    1.85     1.87   5.27940
 2.85000    1.85     1.87   5.28200
 2.90000    1.85     1.87   5.28500
 2.95000    1.85     1.87   5.28590
 3.00000    1.85     1.87   5.28830
 3.05000    1.85     1.87   5.29060
 3.10000    1.85     1.87   5.28520
 3.15000    1.85     1.87   5.28790
 3.20000    1.85     1.87   5.28550
 3.25000    1.85     1.87   5.29110
 3.30000    1.85     1.87   5.28910
 3.35000    1.85     1.87   5.28880
 3.40000    1.85     1.87   5.28420
 3.45000    1.86     1.88   5.28880
 3.50000    1.86     1.88   5.28850
 3.55000    1.86     1.88   5.28680
 3.60000    1.86     1.88   5.29160
 3.65000    1.86     1.88   5.28950
 3.70000    1.86     1.88   5.29000
 3.75000    1.86     1.88   5.29140
 3.80000    1.86     1.88   5.29070
 3.85000    1.86     1.88   5.28800
 3.90000    1.86     1.88   5.29220
 3.95000    1.86     1.88   5.29310
 4.00000    1.86     1.88   5.28730
