 Field[T] Tsmpl[K] Tcntr[K] Signal
 0.00000    4.77     3.19   1.38990
 0.05000    4.76     3.19   1.39020
 0.10000    4.76     3.18   1.38790
 0.15000    4.75     3.19   1.39380
 0.20000    4.75     3.18   1.39270
 0.25000    4.74     3.18   1.39540
 0.30000    4.73     3.18   1.39420
 0.35000    4.73     3.19   1.38450
 0.40000    4.72     3.19   1.39280
 0.45000    4.72     3.18   1.38700
 0.50000    4.72     3.18   1.38640
 0.55000    4.72     3.19   1.38180
 0.60000    4.71     3.19   1.38330
 0.65000    4.72     3.19   1.38190
 0.70000    4.72     3.20   1.37540
 0.75000    4.72     3.19   1.37800
 0.80000    4.72     3.20   1.38280
 0.85000    4.72     3.19   1.39010
 0.90000    4.72     3.19   1.39540
 0.95000    4.72     3.20   1.39660
 1.00000    4.72     3.19   1.39680
 1.05000    4.72     3.19   1.39820
 1.10000    4.72     3.20   1.40380
 1.15000    4.72     3.19   1.40330
 1.20000    4.72     3.20   1.40390
 1.25000    4.72     3.19   1.40740
 1.30000    4.72     3.20   1.41200
 1.35000    4.72     3.20   1.41110
 1.40000    4.73     3.20   1.41000
 1.45000    4.73     3.20   1.41040
 1.50000    4.73     3.20   1.41530
 1.55000    4.74     3.20   1.41790
 1.60000    4.74     3.19   1.41510
 1.65000    4.74     3.20   1.41990
 1.70000    4.74     3.20   1.42100
 1.75000    4.74     3.20   1.42150
 1.80000    4.74     3.20   1.42290
 1.85000    4.74     3.20   1.42060
 1.90000    4.74     3.20   1.42040
 1.95000    4.74     3.20   1.41870
 2.00000    4.75     3.20   1.41610
 2.05000    4.75     3.19   1.41160
 2.10000    4.75     3.19   1.41220
 2.15000    4.75     3.19   1.41180
 2.20000    4.75     3.20   1.41310
 2.25000    4.74     3.20   1.41470
 2.30000    4.74     3.19   1.41640
 2.35000    4.74     3.20   1.42000
 2.40000    4.73     3.20   1.41740
 2.45000    4.73     3.19   1.42000
 2.50000    4.72     3.19   1.42460
 2.55000    4.72     3.21   1.42160
 2.60000    4.72     3.21   1.41750
 2.65000    4.72     3.21   1.43160
 2.70000    4.72     3.20   1.43150
 2.75000    4.72     3.20   1.43420
 2.80000    4.73     3.20   1.43230
 2.85000    4.73     3.20   1.43650
 2.90000    4.73     3.20   1.43440
 2.95000    4.73     3.20   1.43220
 3.00000    4.72     3.20   1.43020
 3.05000    4.72     3.20   1.43290
 3.10000    4.71     3.19   1.42760
 3.15000    4.70     3.19   1.43320
 3.20000    4.69     3.19   1.43040
 3.25000    4.68     3.20   1.43550
 3.30000    4.67     3.19   1.43430
 3.35000    4.67     3.20   1.43620
 3.40000    4.66     3.20   1.43690
 3.45000    4.66     3.20   1.43860
 3.50000    4.65     3.20   1.43640
 3.55000    4.66     3.19   1.43920
 3.60000    4.66     3.20   1.43820
 3.65000    4.66     3.20   1.43530
 3.70000    4.67     3.20   1.44050
 3.75000    4.68     3.21   1.44260
 3.80000    4.68     3.20   1.44020
 3.85000    4.69     3.20   1.43950
 3.90000    4.70     3.20   1.43400
 3.95000    4.70     3.21   1.43860
 4.00000    4.71     3.20   1.44270
 4.05000    4.72     3.21   1.44800
 4.10000    4.73     3.20   1.44500
 4.15000    4.74     3.21   1.44210
 4.20000    4.74     3.21   1.44430
 4.25000    4.75     3.20   1.44380
 4.30000    4.76     3.21   1.43910
 4.35000    4.76     3.21   1.44220
 4.40000    4.77     3.20   1.43970
 4.45000    4.78     3.20   1.43780
 4.50000    4.78     3.20   1.43650
 4.55000    4.79     3.21   1.43380
 4.60000    4.79     3.20   1.43330
 4.65000    4.79     3.20   1.43300
 4.70000    4.80     3.21   1.43000
 4.75000    4.80     3.21   1.43560
 4.80000    4.80     3.21   1.43070
 4.85000    4.81     3.21   1.42770
 4.90000    4.81     3.21   1.43160
 4.95000    4.81     3.21   1.42570
 5.00000    4.81     3.20   1.42020
 5.05000    4.82     3.21   1.41940
 5.10000    4.82     3.21   1.42160
 5.15000    4.82     3.20   1.41710
 5.20000    4.82     3.20   1.41930
 5.25000    4.82     3.20   1.42150
 5.30000    4.82     3.20   1.42130
 5.35000    4.82     3.20   1.42090
 5.40000    4.82     3.21   1.41300
 5.45000    4.82     3.21   1.41460
 5.50000    4.82     3.22   1.41800
 5.55000    4.82     3.21   1.41660
 5.60000    4.83     3.22   1.41440
 5.65000    4.83     3.22   1.41290
 5.70000    4.83     3.21   1.41260
 5.75000    4.83     3.21   1.41130
 5.80000    4.83     3.21   1.40680
 5.85000    4.83     3.20   1.40780
 5.90000    4.83     3.21   1.40720
 5.95000    4.83     3.20   1.40860
 6.00000    4.83     3.21   1.40650
 6.05000    4.83     3.21   1.40730
 6.10000    4.83     3.21   1.40580
 6.15000    4.83     3.22   1.40790
 6.20000    4.84     3.21   1.40470
 6.25000    4.84     3.22   1.40220
 6.30000    4.84     3.21   1.40570
 6.35000    4.84     3.21   1.40160
 6.40000    4.84     3.21   1.40370
 6.45000    4.84     3.22   1.40530
 6.50000    4.84     3.21   1.40890
 6.55000    4.85     3.21   1.40600
 6.60000    4.86     3.21   1.40600
 6.65000    4.87     3.22   1.40660
 6.70000    4.89     3.22   1.40500
 6.75000    4.91     3.22   1.40940
 6.80000    4.93     3.22   1.40700
 6.85000    4.95     3.23   1.40360
 6.90000    4.97     3.22   1.40610
 6.95000    4.98     3.22   1.40360
 7.00000    4.99     3.22   1.40330
