 Field[T] Tsmpl[K] Tcntr[K] Signal
 0.00000    4.78     3.19   1.99630
 0.05000    4.78     3.20   1.99930
 0.10000    4.79     3.20   2.00160
 0.15000    4.79     3.20   1.99880
 0.20000    4.79     3.21   2.00230
 0.25000    4.78     3.21   2.00920
 0.30000    4.78     3.20   2.01380
 0.35000    4.77     3.20   2.01570
 0.40000    4.77     3.20   2.02040
 0.45000    4.77     3.19   2.01750
 0.50000    4.77     3.20   2.02390
 0.55000    4.77     3.19   2.02120
 0.60000    4.77     3.20   2.02980
 0.65000    4.78     3.20   2.02980
 0.70000    4.78     3.20   2.02680
 0.75000    4.79     3.20   2.02910
 0.80000    4.80     3.20   2.03120
 0.85000    4.80     3.20   2.03640
 0.90000    4.81     3.20   2.04130
 0.95000    4.81     3.20   2.04150
 1.00000    4.81     3.20   2.04610
 1.05000    4.81     3.20   2.04820
 1.10000    4.81     3.20   2.05460
 1.15000    4.80     3.20   2.06300
 1.20000    4.80     3.20   2.06450
 1.25000    4.80     3.20   2.06460
 1.30000    4.80     3.20   2.06780
 1.35000    4.81     3.20   2.06550
 1.40000    4.81     3.20   2.07200
 1.45000    4.81     3.20   2.06980
 1.50000    4.81     3.20   2.07270
 1.55000    4.81     3.20   2.07080
 1.60000    4.81     3.20   2.07010
 1.65000    4.81     3.20   2.06790
 1.70000    4.81     3.20   2.06690
 1.75000    4.81     3.20   2.06390
 1.80000    4.81     3.20   2.06080
 1.85000    4.81     3.20   2.06170
 1.90000    4.81     3.20   2.06230
 1.95000    4.81     3.20   2.06480
 2.00000    4.81     3.21   2.06670
 2.05000    4.80     3.20   2.06380
 2.10000    4.80     3.20   2.06570
 2.15000    4.79     3.20   2.06990
 2.20000    4.78     3.19   2.07030
 2.25000    4.78     3.20   2.07020
 2.30000    4.78     3.21   2.07000
 2.35000    4.78     3.20   2.07230
 2.40000    4.77     3.20   2.06590
 2.45000    4.77     3.20   2.07360
 2.50000    4.76     3.20   2.07980
 2.55000    4.76     3.20   2.08220
 2.60000    4.76     3.20   2.08680
 2.65000    4.76     3.21   2.08800
 2.70000    4.75     3.20   2.08850
 2.75000    4.75     3.20   2.08650
 2.80000    4.75     3.19   2.08480
 2.85000    4.74     3.20   2.08590
 2.90000    4.74     3.20   2.08800
 2.95000    4.74     3.20   2.08410
 3.00000    4.74     3.19   2.08560
 3.05000    4.73     3.21   2.08280
 3.10000    4.73     3.20   2.08510
 3.15000    4.73     3.21   2.08840
 3.20000    4.73     3.21   2.08490
 3.25000    4.73     3.20   2.08740
 3.30000    4.73     3.20   2.08750
 3.35000    4.74     3.21   2.08770
 3.40000    4.74     3.20   2.08850
 3.45000    4.74     3.21   2.08660
 3.50000    4.74     3.21   2.08660
 3.55000    4.74     3.21   2.08640
 3.60000    4.74     3.20   2.08700
 3.65000    4.74     3.19   2.08450
 3.70000    4.74     3.20   2.08290
 3.75000    4.73     3.21   2.08450
 3.80000    4.73     3.20   2.09050
 3.85000    4.73     3.21   2.09330
 3.90000    4.73     3.20   2.09200
 3.95000    4.73     3.20   2.09120
 4.00000    4.73     3.20   2.09090
 4.05000    4.73     3.20   2.09120
 4.10000    4.73     3.20   2.09500
 4.15000    4.73     3.21   2.09690
 4.20000    4.74     3.20   2.09120
 4.25000    4.74     3.21   2.09790
 4.30000    4.74     3.21   2.09660
 4.35000    4.74     3.21   2.09730
 4.40000    4.74     3.21   2.09450
 4.45000    4.75     3.21   2.09420
 4.50000    4.76     3.21   2.09500
 4.55000    4.76     3.21   2.09740
 4.60000    4.77     3.21   2.09830
 4.65000    4.77     3.21   2.09720
 4.70000    4.78     3.22   2.09660
 4.75000    4.79     3.21   2.09860
 4.80000    4.80     3.21   2.10120
 4.85000    4.80     3.21   2.10040
 4.90000    4.82     3.21   2.09890
 4.95000    4.82     3.21   2.10070
 5.00000    4.83     3.21   2.10000
 5.05000    4.84     3.21   2.10000
 5.10000    4.84     3.21   2.10000
 5.15000    4.85     3.22   2.09980
 5.20000    4.85     3.21   2.10080
 5.25000    4.86     3.21   2.10020
 5.30000    4.86     3.21   2.10320
 5.35000    4.87     3.21   2.10410
 5.40000    4.88     3.21   2.10500
 5.45000    4.88     3.22   2.10600
 5.50000    4.89     3.21   2.10620
 5.55000    4.89     3.21   2.10020
 5.60000    4.90     3.22   2.10920
 5.65000    4.90     3.21   2.10480
 5.70000    4.91     3.21   2.10560
 5.75000    4.91     3.21   2.10740
 5.80000    4.92     3.22   2.10580
 5.85000    4.93     3.21   2.10860
 5.90000    4.93     3.21   2.10640
 5.95000    4.94     3.21   2.10710
 6.00000    4.95     3.21   2.10220
 6.05000    4.96     3.21   2.10160
 6.10000    4.97     3.21   2.10580
 6.15000    4.98     3.22   2.10710
 6.20000    4.99     3.21   2.10810
 6.25000    4.99     3.21   2.10590
 6.30000    5.00     3.20   2.09990
 6.35000    5.00     3.21   2.09720
 6.40000    5.01     3.20   2.09620
 6.45000    5.02     3.20   2.09980
 6.50000    5.02     3.22   2.09460
 6.55000    5.03     3.21   2.09930
 6.60000    5.03     3.21   2.09900
 6.65000    5.04     3.21   2.10100
 6.70000    5.04     3.21   2.09790
 6.75000    5.04     3.21   2.09790
 6.80000    5.04     3.21   2.09360
 6.85000    5.05     3.21   2.10080
 6.90000    5.05     3.21   2.09990
 6.95000    5.05     3.21   2.09900
 7.00000    5.06     3.21   2.10280
