 Field[T] Tsmpl[K] Tcntr[K] Signal   Mirror[MM]
 0.00000    1.85     1.85   0.20375  -8.9175
 0.05000    1.85     1.85   0.20315  -8.9172
 0.10000    1.85     1.85   0.20327  -8.9173
 0.15000    1.85     1.85   0.20318  -8.9177
 0.20000    1.85     1.85   0.20278  -8.9174
 0.25000    1.85     1.85   0.20268  -8.9177
 0.30000    1.85     1.85   0.20262  -8.9179
 0.35000    1.85     1.85   0.20257  -8.9182
 0.40000    1.85     1.85   0.20240  -8.9179
 0.45000    1.85     1.85   0.20211  -8.9179
 0.50000    1.85     1.85   0.20214  -8.9182
 0.55000    1.85     1.85   0.20216  -8.9182
 0.60000    1.85     1.85   0.20212  -8.9183
 0.65000    1.85     1.85   0.20196  -8.9183
 0.70000    1.85     1.85   0.20180  -8.9186
 0.75000    1.85     1.85   0.20167  -8.9186
 0.80000    1.85     1.85   0.20162  -8.9189
 0.85000    1.85     1.85   0.20156  -8.9189
 0.90000    1.85     1.85   0.20129  -8.9190
 0.95000    1.85     1.85   0.20132  -8.9191
 1.00000    1.85     1.85   0.20142  -8.9193
 1.05000    1.85     1.85   0.20135  -8.9196
 1.10000    1.85     1.85   0.20131  -8.9197
 1.15000    1.85     1.85   0.20148  -8.9198
 1.20000    1.85     1.85   0.20146  -8.9199
 1.25000    1.85     1.85   0.20128  -8.9198
 1.30000    1.85     1.85   0.20121  -8.9198
 1.35000    1.85     1.85   0.20131  -8.9199
 1.40000    1.85     1.85   0.20152  -8.9199
 1.45000    1.85     1.85   0.20167  -8.9202
 1.50000    1.85     1.85   0.20174  -8.9203
 1.55000    1.85     1.85   0.20173  -8.9203
 1.60000    1.85     1.85   0.20185  -8.9205
 1.65000    1.85     1.85   0.20170  -8.9203
 1.70000    1.85     1.85   0.20170  -8.9205
 1.75000    1.85     1.85   0.20178  -8.9203
 1.80000    1.85     1.85   0.20173  -8.9203
 1.85000    1.85     1.85   0.20188  -8.9203
 1.90000    1.85     1.85   0.20172  -8.9202
 1.95000    1.85     1.85   0.20173  -8.9199
 2.00000    1.85     1.85   0.20169  -8.9203
 2.05000    1.85     1.85   0.20166  -8.9202
 2.10000    1.85     1.85   0.20168  -8.9202
 2.15000    1.85     1.85   0.20170  -8.9205
 2.20000    1.85     1.85   0.20171  -8.9204
 2.25000    1.85     1.85   0.20181  -8.9206
 2.30000    1.85     1.85   0.20188  -8.9208
 2.35000    1.85     1.85   0.20189  -8.9206
 2.40000    1.85     1.85   0.20197  -8.9207
 2.45000    1.85     1.85   0.20193  -8.9206
 2.50000    1.85     1.85   0.20196  -8.9204
 2.55000    1.85     1.85   0.20193  -8.9205
 2.60000    1.85     1.85   0.20180  -8.9204
 2.65000    1.85     1.85   0.20171  -8.9201
 2.70000    1.85     1.85   0.20174  -8.9201
 2.75000    1.85     1.85   0.20163  -8.9200
 2.80000    1.85     1.85   0.20173  -8.9202
 2.85000    1.85     1.85   0.20184  -8.9202
 2.90000    1.85     1.85   0.20179  -8.9201
 2.95000    1.85     1.85   0.20170  -8.9203
 3.00000    1.85     1.85   0.20150  -8.9205
 3.05000    1.85     1.85   0.20149  -8.9203
 3.10000    1.85     1.85   0.20142  -8.9203
 3.15000    1.85     1.85   0.20130  -8.9200
 3.20000    1.85     1.85   0.20131  -8.9201
 3.25000    1.85     1.85   0.20135  -8.9199
 3.30000    1.85     1.85   0.20138  -8.9198
 3.35000    1.85     1.85   0.20137  -8.9199
 3.40000    1.85     1.85   0.20117  -8.9198
 3.45000    1.85     1.85   0.20111  -8.9199
 3.50000    1.85     1.85   0.20125  -8.9199
 3.55000    1.85     1.85   0.20115  -8.9199
 3.60000    1.85     1.85   0.20125  -8.9199
 3.65000    1.85     1.85   0.20128  -8.9199
 3.70000    1.85     1.85   0.20134  -8.9199
 3.75000    1.85     1.85   0.20120  -8.9198
 3.80000    1.85     1.85   0.20116  -8.9198
 3.85000    1.85     1.85   0.20108  -8.9199
 3.90000    1.85     1.85   0.20110  -8.9201
 3.95000    1.85     1.85   0.20117  -8.9201
 4.00000    1.85     1.85   0.20113  -8.9199
 4.00000    1.85     1.85   0.20126  -8.9199
 3.95000    1.85     1.85   0.20124  -8.9199
 3.90000    1.85     1.85   0.20125  -8.9199
 3.85000    1.85     1.85   0.20122  -8.9199
 3.80000    1.85     1.85   0.20129  -8.9200
 3.75000    1.85     1.85   0.20112  -8.9200
 3.70000    1.85     1.85   0.20110  -8.9200
 3.65000    1.85     1.85   0.20101  -8.9201
 3.60000    1.85     1.85   0.20111  -8.9202
 3.55000    1.85     1.85   0.20109  -8.9200
 3.50000    1.85     1.85   0.20095  -8.9202
 3.45000    1.85     1.85   0.20107  -8.9204
 3.40000    1.85     1.85   0.20104  -8.9201
 3.35000    1.85     1.85   0.20110  -8.9205
 3.30000    1.85     1.85   0.20113  -8.9203
 3.25000    1.85     1.85   0.20124  -8.9204
 3.20000    1.85     1.85   0.20123  -8.9204
 3.15000    1.85     1.85   0.20115  -8.9205
 3.10000    1.85     1.85   0.20129  -8.9204
 3.05000    1.85     1.85   0.20123  -8.9204
 3.00000    1.85     1.85   0.20124  -8.9205
 2.95000    1.85     1.85   0.20121  -8.9204
 2.90000    1.85     1.85   0.20114  -8.9203
 2.85000    1.85     1.85   0.20128  -8.9204
 2.80000    1.85     1.85   0.20150  -8.9205
 2.75000    1.85     1.85   0.20136  -8.9205
 2.70000    1.85     1.85   0.20127  -8.9206
 2.65000    1.85     1.85   0.20139  -8.9206
 2.60000    1.85     1.85   0.20122  -8.9206
 2.55000    1.85     1.85   0.20115  -8.9206
 2.50000    1.85     1.85   0.20114  -8.9206
 2.45000    1.85     1.85   0.20107  -8.9208
 2.40000    1.85     1.85   0.20117  -8.9206
 2.35000    1.85     1.85   0.20107  -8.9205
 2.30000    1.85     1.85   0.20117  -8.9207
 2.25000    1.85     1.85   0.20111  -8.9207
 2.20000    1.85     1.85   0.20126  -8.9209
 2.15000    1.85     1.85   0.20098  -8.9207
 2.10000    1.85     1.85   0.20129  -8.9208
 2.05000    1.85     1.85   0.20116  -8.9208
 2.00000    1.85     1.85   0.20094  -8.9209
 1.95000    1.85     1.85   0.20096  -8.9211
 1.90000    1.85     1.85   0.20095  -8.9210
 1.85000    1.85     1.85   0.20091  -8.9210
 1.80000    1.85     1.85   0.20087  -8.9209
 1.75000    1.85     1.85   0.20096  -8.9210
 1.70000    1.85     1.85   0.20063  -8.9209
 1.65000    1.85     1.85   0.20061  -8.9208
 1.60000    1.85     1.85   0.20059  -8.9208
 1.55000    1.85     1.85   0.20045  -8.9211
 1.50000    1.85     1.85   0.20025  -8.9209
 1.45000    1.85     1.85   0.20031  -8.9208
 1.40000    1.85     1.85   0.20017  -8.9209
 1.35000    1.85     1.85   0.20039  -8.9209
 1.30000    1.85     1.85   0.20032  -8.9209
 1.25000    1.85     1.85   0.20025  -8.9207
 1.20000    1.85     1.85   0.20013  -8.9204
 1.15000    1.85     1.85   0.20016  -8.9203
 1.10000    1.85     1.85   0.20002  -8.9202
 1.05000    1.85     1.85   0.19995  -8.9200
 1.00000    1.85     1.85   0.19984  -8.9200
 0.95000    1.85     1.85   0.19987  -8.9199
 0.90000    1.85     1.85   0.19997  -8.9197
 0.85000    1.85     1.85   0.19948  -8.9185
 0.80000    1.85     1.85   0.19962  -8.9187
 0.75000    1.85     1.85   0.20000  -8.9190
 0.70000    1.85     1.85   0.19975  -8.9186
 0.65000    1.85     1.85   0.20007  -8.9191
 0.60000    1.85     1.85   0.19985  -8.9190
 0.55000    1.85     1.85   0.19996  -8.9188
 0.50000    1.85     1.85   0.19986  -8.9186
 0.45000    1.85     1.85   0.19990  -8.9186
 0.40000    1.85     1.85   0.20013  -8.9186
 0.35000    1.85     1.85   0.20013  -8.9183
 0.30000    1.85     1.85   0.20021  -8.9182
 0.25000    1.85     1.85   0.20034  -8.9184
 0.20000    1.85     1.85   0.20027  -8.9181
 0.15000    1.85     1.85   0.20047  -8.9182
 0.10000    1.85     1.85   0.20045  -8.9183
 0.05000    1.85     1.85   0.20056  -8.9182
 -0.00000    1.85     1.85   0.20048  -8.9181
