 Field[T] Tsmpl[K] Tcntr[K] Signal   Mirror[MM]
 0.00000    1.79     1.79   0.49985  -8.8420
 0.05000    1.79     1.79   0.50005  -8.8423
 0.10000    1.79     1.79   0.50045  -8.8426
 0.15000    1.79     1.79   0.50300  -8.8422
 0.20000    1.79     1.79   0.50245  -8.8425
 0.25000    1.79     1.79   0.50190  -8.8423
 0.30000    1.79     1.79   0.50365  -8.8425
 0.35000    1.79     1.79   0.50335  -8.8425
 0.40000    1.79     1.79   0.50235  -8.8428
 0.45000    1.79     1.79   0.50330  -8.8429
 0.50000    1.79     1.79   0.50290  -8.8429
 0.55000    1.79     1.79   0.50140  -8.8429
 0.60000    1.79     1.79   0.50130  -8.8433
 0.65000    1.79     1.79   0.50105  -8.8434
 0.70000    1.79     1.79   0.50105  -8.8435
 0.75000    1.79     1.79   0.50220  -8.8436
 0.80000    1.79     1.79   0.50215  -8.8440
 0.85000    1.79     1.79   0.50055  -8.8441
 0.90000    1.79     1.79   0.49965  -8.8442
 0.95000    1.79     1.79   0.49975  -8.8445
 1.00000    1.79     1.79   0.49940  -8.8445
 1.05000    1.79     1.79   0.49845  -8.8448
 1.10000    1.79     1.79   0.49910  -8.8453
 1.15000    1.79     1.79   0.49945  -8.8455
 1.20000    1.79     1.79   0.50035  -8.8453
 1.25000    1.79     1.79   0.50065  -8.8455
 1.30000    1.79     1.79   0.50085  -8.8454
 1.35000    1.79     1.79   0.50245  -8.8456
 1.40000    1.79     1.79   0.50375  -8.8457
 1.45000    1.79     1.79   0.50495  -8.8458
 1.50000    1.79     1.79   0.50530  -8.8460
 1.55000    1.79     1.79   0.50610  -8.8460
 1.60000    1.79     1.79   0.50615  -8.8459
 1.65000    1.79     1.79   0.50770  -8.8462
 1.70000    1.79     1.79   0.50855  -8.8461
 1.75000    1.79     1.79   0.50935  -8.8462
 1.80000    1.79     1.79   0.50930  -8.8461
 1.85000    1.79     1.79   0.51070  -8.8459
 1.90000    1.79     1.79   0.51060  -8.8459
 1.95000    1.79     1.79   0.51105  -8.8460
 2.00000    1.79     1.79   0.51065  -8.8458
 2.05000    1.79     1.79   0.51120  -8.8459
 2.10000    1.79     1.79   0.51215  -8.8456
 2.15000    1.79     1.79   0.51300  -8.8457
 2.20000    1.79     1.79   0.51375  -8.8455
 2.25000    1.79     1.79   0.51580  -8.8457
 2.30000    1.79     1.79   0.51385  -8.8455
 2.35000    1.79     1.79   0.51305  -8.8453
 2.40000    1.79     1.79   0.51275  -8.8454
 2.45000    1.79     1.79   0.51205  -8.8450
 2.50000    1.79     1.79   0.51265  -8.8451
 2.55000    1.79     1.79   0.51270  -8.8451
 2.60000    1.79     1.79   0.51480  -8.8450
 2.65000    1.79     1.79   0.51400  -8.8450
 2.70000    1.79     1.79   0.51415  -8.8449
 2.75000    1.79     1.79   0.51335  -8.8449
 2.80000    1.79     1.79   0.51360  -8.8450
 2.85000    1.79     1.79   0.51425  -8.8449
 2.90000    1.79     1.79   0.51480  -8.8448
 2.95000    1.79     1.79   0.51445  -8.8449
 3.00000    1.79     1.79   0.51495  -8.8449
 3.05000    1.79     1.79   0.51340  -8.8446
 3.10000    1.79     1.79   0.51255  -8.8445
 3.15000    1.79     1.79   0.51175  -8.8444
 3.20000    1.79     1.79   0.51280  -8.8444
 3.25000    1.79     1.79   0.51425  -8.8446
 3.30000    1.79     1.79   0.51300  -8.8445
 3.35000    1.79     1.79   0.51265  -8.8444
 3.40000    1.79     1.79   0.51280  -8.8446
 3.45000    1.79     1.79   0.51100  -8.8443
 3.50000    1.79     1.79   0.51035  -8.8446
 3.55000    1.79     1.79   0.51050  -8.8443
 3.60000    1.79     1.79   0.51000  -8.8442
 3.65000    1.79     1.79   0.51025  -8.8445
 3.70000    1.79     1.79   0.51075  -8.8445
 3.75000    1.79     1.79   0.51155  -8.8443
 3.80000    1.79     1.79   0.51280  -8.8444
 3.85000    1.79     1.79   0.51155  -8.8441
 3.90000    1.79     1.79   0.51175  -8.8442
 3.95000    1.79     1.79   0.51245  -8.8443
 4.00000    1.79     1.79   0.51175  -8.8442
 4.05000    1.79     1.79   0.51040  -8.8441
 4.10000    1.79     1.79   0.51170  -8.8442
 4.15000    1.79     1.79   0.50935  -8.8442
 4.20000    1.79     1.79   0.50855  -8.8440
 4.25000    1.79     1.79   0.50860  -8.8441
 4.30000    1.79     1.79   0.50820  -8.8440
 4.35000    1.79     1.79   0.50795  -8.8437
 4.40000    1.79     1.79   0.50905  -8.8438
 4.45000    1.79     1.79   0.50800  -8.8436
 4.50000    1.79     1.79   0.50735  -8.8439
 4.55000    1.79     1.79   0.50730  -8.8437
 4.60000    1.79     1.79   0.50705  -8.8436
 4.65000    1.79     1.79   0.50690  -8.8437
 4.70000    1.79     1.79   0.50805  -8.8436
 4.75000    1.79     1.79   0.50785  -8.8436
 4.80000    1.79     1.79   0.50750  -8.8435
 4.85000    1.79     1.79   0.50820  -8.8436
 4.90000    1.79     1.79   0.50875  -8.8437
 4.95000    1.79     1.79   0.50735  -8.8434
 5.00000    1.79     1.79   0.50595  -8.8436
 5.05000    1.79     1.79   0.50580  -8.8436
 5.10000    1.79     1.79   0.50480  -8.8434
 5.15000    1.79     1.79   0.50575  -8.8435
 5.20000    1.79     1.79   0.50595  -8.8434
 5.25000    1.79     1.79   0.50605  -8.8432
 5.30000    1.79     1.79   0.50655  -8.8433
 5.35000    1.79     1.79   0.50575  -8.8432
 5.40000    1.79     1.79   0.50490  -8.8432
 5.45000    1.79     1.79   0.50400  -8.8433
 5.50000    1.79     1.79   0.50360  -8.8432
 5.55000    1.79     1.79   0.50245  -8.8430
 5.60000    1.79     1.79   0.50375  -8.8431
 5.65000    1.79     1.79   0.50395  -8.8432
 5.70000    1.79     1.79   0.50415  -8.8429
 5.75000    1.79     1.79   0.50315  -8.8427
 5.80000    1.79     1.79   0.50340  -8.8430
 5.85000    1.79     1.79   0.50250  -8.8427
 5.90000    1.79     1.79   0.50195  -8.8429
 5.95000    1.79     1.79   0.50230  -8.8427
 6.00000    1.79     1.79   0.50220  -8.8426
 6.05000    1.79     1.79   0.50160  -8.8426
 6.10000    1.79     1.79   0.50295  -8.8427
 6.15000    1.79     1.79   0.50200  -8.8427
 6.20000    1.79     1.79   0.50160  -8.8427
 6.25000    1.79     1.79   0.50035  -8.8427
 6.30000    1.79     1.79   0.50075  -8.8427
 6.35000    1.79     1.79   0.50060  -8.8426
 6.40000    1.79     1.79   0.50060  -8.8425
 6.45000    1.79     1.79   0.50220  -8.8427
 6.50000    1.79     1.79   0.50160  -8.8425
 6.55000    1.79     1.79   0.50060  -8.8426
 6.60000    1.79     1.79   0.49985  -8.8424
 6.65000    1.79     1.79   0.49975  -8.8424
 6.70000    1.79     1.79   0.49990  -8.8423
 6.75000    1.79     1.79   0.50115  -8.8422
 6.80000    1.79     1.79   0.49995  -8.8422
 6.85000    1.79     1.79   0.49990  -8.8422
 6.90000    1.79     1.79   0.50135  -8.8421
 6.95000    1.79     1.79   0.50085  -8.8420
 7.00000    1.79     1.79   0.50005  -8.8418
 7.00000    1.79     1.79   0.49975  -8.8420
 6.95000    1.79     1.79   0.49925  -8.8419
 6.90000    1.79     1.79   0.49980  -8.8418
 6.85000    1.79     1.79   0.49990  -8.8419
 6.80000    1.79     1.79   0.50020  -8.8419
 6.75000    1.79     1.79   0.49995  -8.8419
 6.70000    1.79     1.79   0.49950  -8.8418
 6.65000    1.79     1.79   0.50045  -8.8422
 6.60000    1.79     1.79   0.50095  -8.8421
 6.55000    1.79     1.79   0.50190  -8.8420
 6.50000    1.79     1.79   0.50085  -8.8421
 6.45000    1.79     1.79   0.50065  -8.8421
 6.40000    1.79     1.79   0.49980  -8.8420
 6.35000    1.79     1.79   0.49990  -8.8422
 6.30000    1.79     1.79   0.50110  -8.8422
 6.25000    1.79     1.79   0.50075  -8.8421
 6.20000    1.79     1.79   0.50050  -8.8420
 6.15000    1.79     1.79   0.50135  -8.8422
 6.10000    1.79     1.79   0.50355  -8.8426
 6.05000    1.79     1.79   0.50240  -8.8420
 6.00000    1.79     1.79   0.50260  -8.8422
 5.95000    1.79     1.79   0.50260  -8.8421
 5.90000    1.79     1.79   0.50335  -8.8424
 5.85000    1.79     1.79   0.50380  -8.8422
 5.80000    1.79     1.79   0.50300  -8.8423
 5.75000    1.79     1.79   0.50240  -8.8424
 5.70000    1.79     1.79   0.50200  -8.8423
 5.65000    1.79     1.79   0.50155  -8.8423
 5.60000    1.79     1.79   0.50135  -8.8423
 5.55000    1.79     1.79   0.50185  -8.8423
 5.50000    1.79     1.79   0.50160  -8.8422
 5.45000    1.79     1.79   0.50120  -8.8424
 5.40000    1.79     1.79   0.50185  -8.8426
 5.35000    1.79     1.79   0.50320  -8.8426
 5.30000    1.79     1.79   0.50355  -8.8425
 5.25000    1.79     1.79   0.50470  -8.8424
 5.20000    1.79     1.79   0.50455  -8.8425
 5.15000    1.79     1.79   0.50425  -8.8425
 5.10000    1.79     1.79   0.50450  -8.8426
 5.05000    1.79     1.79   0.50345  -8.8425
 5.00000    1.79     1.79   0.50305  -8.8426
 4.95000    1.79     1.79   0.50475  -8.8427
 4.90000    1.79     1.79   0.50445  -8.8428
 4.85000    1.79     1.79   0.50455  -8.8431
 4.80000    1.79     1.79   0.50565  -8.8431
 4.75000    1.79     1.79   0.50510  -8.8430
 4.70000    1.79     1.79   0.50445  -8.8429
 4.65000    1.79     1.79   0.50365  -8.8427
 4.60000    1.79     1.79   0.50440  -8.8429
 4.55000    1.79     1.79   0.50540  -8.8432
 4.50000    1.79     1.79   0.50485  -8.8431
 4.45000    1.79     1.79   0.50465  -8.8431
 4.40000    1.79     1.79   0.50545  -8.8431
 4.35000    1.79     1.79   0.50720  -8.8432
 4.30000    1.79     1.79   0.50655  -8.8434
 4.25000    1.79     1.79   0.50755  -8.8434
 4.20000    1.79     1.79   0.50700  -8.8435
 4.15000    1.79     1.79   0.50765  -8.8434
 4.10000    1.79     1.79   0.50710  -8.8433
 4.05000    1.79     1.79   0.50935  -8.8432
 4.00000    1.79     1.79   0.50955  -8.8434
 3.95000    1.79     1.79   0.51060  -8.8437
 3.90000    1.79     1.79   0.50995  -8.8435
 3.85000    1.79     1.79   0.50950  -8.8434
 3.80000    1.79     1.79   0.50765  -8.8435
 3.75000    1.79     1.79   0.50805  -8.8437
 3.70000    1.79     1.79   0.50715  -8.8433
 3.65000    1.79     1.79   0.50730  -8.8435
 3.60000    1.79     1.79   0.50770  -8.8436
 3.55000    1.79     1.79   0.50820  -8.8436
 3.50000    1.79     1.79   0.50875  -8.8433
 3.45000    1.79     1.79   0.50975  -8.8435
 3.40000    1.79     1.79   0.50940  -8.8435
 3.35000    1.79     1.79   0.50855  -8.8435
 3.30000    1.79     1.79   0.51000  -8.8436
 3.25000    1.79     1.79   0.51025  -8.8436
 3.20000    1.79     1.79   0.50885  -8.8437
 3.15000    1.79     1.79   0.50845  -8.8437
 3.10000    1.79     1.79   0.50835  -8.8436
 3.05000    1.79     1.79   0.50810  -8.8434
 3.00000    1.79     1.79   0.50880  -8.8436
 2.95000    1.79     1.79   0.51055  -8.8437
 2.90000    1.79     1.79   0.50955  -8.8438
 2.85000    1.79     1.79   0.51085  -8.8442
 2.80000    1.79     1.79   0.51050  -8.8445
 2.75000    1.79     1.79   0.50945  -8.8443
 2.70000    1.79     1.79   0.50950  -8.8447
 2.65000    1.79     1.79   0.50885  -8.8446
 2.60000    1.79     1.79   0.50900  -8.8446
 2.55000    1.79     1.79   0.50990  -8.8448
 2.50000    1.79     1.79   0.51085  -8.8450
 2.45000    1.79     1.79   0.51140  -8.8447
 2.40000    1.79     1.79   0.51175  -8.8448
 2.35000    1.79     1.79   0.51135  -8.8445
 2.30000    1.79     1.79   0.51035  -8.8445
 2.25000    1.79     1.79   0.51145  -8.8449
 2.20000    1.79     1.79   0.51060  -8.8449
 2.15000    1.79     1.79   0.50895  -8.8447
 2.10000    1.79     1.79   0.50935  -8.8448
 2.05000    1.79     1.79   0.50885  -8.8452
 2.00000    1.79     1.79   0.50805  -8.8451
 1.95000    1.79     1.79   0.50860  -8.8451
 1.90000    1.79     1.79   0.50655  -8.8451
 1.85000    1.79     1.79   0.50560  -8.8451
 1.80000    1.79     1.79   0.50480  -8.8453
 1.75000    1.79     1.79   0.50475  -8.8450
 1.70000    1.79     1.79   0.50300  -8.8448
 1.65000    1.79     1.79   0.50210  -8.8451
 1.60000    1.79     1.79   0.50195  -8.8451
 1.55000    1.79     1.79   0.50260  -8.8450
 1.50000    1.79     1.79   0.50065  -8.8450
 1.45000    1.79     1.79   0.50020  -8.8450
 1.40000    1.79     1.79   0.49975  -8.8450
 1.35000    1.79     1.79   0.49855  -8.8449
 1.30000    1.79     1.79   0.49820  -8.8442
 1.25000    1.79     1.79   0.49805  -8.8443
 1.20000    1.79     1.79   0.49910  -8.8443
 1.15000    1.79     1.79   0.50015  -8.8439
 1.10000    1.79     1.79   0.49730  -8.8438
 1.05000    1.79     1.79   0.49630  -8.8433
 1.00000    1.79     1.79   0.49505  -8.8431
 0.95000    1.79     1.79   0.49495  -8.8428
 0.90000    1.79     1.79   0.49525  -8.8425
 0.85000    1.79     1.79   0.49530  -8.8423
 0.80000    1.79     1.79   0.49420  -8.8421
 0.75000    1.79     1.79   0.49475  -8.8420
 0.70000    1.79     1.79   0.49520  -8.8417
 0.65000    1.79     1.79   0.49655  -8.8416
 0.60000    1.79     1.79   0.49550  -8.8413
 0.55000    1.79     1.79   0.49710  -8.8412
 0.50000    1.79     1.79   0.49745  -8.8411
 0.45000    1.79     1.79   0.49760  -8.8409
 0.40000    1.79     1.79   0.49800  -8.8409
 0.35000    1.79     1.79   0.50070  -8.8409
 0.30000    1.79     1.79   0.49940  -8.8409
 0.25000    1.79     1.79   0.49910  -8.8406
 0.20000    1.79     1.79   0.49915  -8.8406
 0.15000    1.79     1.79   0.49880  -8.8404
 0.10000    1.79     1.79   0.49825  -8.8403
 0.05000    1.79     1.79   0.49955  -8.8404
 -0.00000    1.79     1.79   0.50075  -8.8405
