 Field[T] Tsmpl[K] Tcntr[K] Signal   Mirror[MM]
 0.00000    1.81     1.81   0.74542  -8.8775
 0.05000    1.81     1.81   0.74756  -8.8776
 0.10000    1.81     1.81   0.74883  -8.8777
 0.15000    1.81     1.81   0.75057  -8.8777
 0.20000    1.81     1.81   0.75165  -8.8778
 0.25000    1.81     1.81   0.75292  -8.8781
 0.30000    1.81     1.81   0.75462  -8.8781
 0.35000    1.81     1.81   0.75579  -8.8780
 0.40000    1.81     1.81   0.75777  -8.8783
 0.45000    1.81     1.81   0.75751  -8.8781
 0.50000    1.81     1.81   0.75788  -8.8782
 0.55000    1.81     1.81   0.75922  -8.8784
 0.60000    1.81     1.81   0.75947  -8.8784
 0.65000    1.81     1.81   0.75935  -8.8786
 0.70000    1.81     1.81   0.75974  -8.8786
 0.75000    1.81     1.81   0.76037  -8.8786
 0.80000    1.81     1.81   0.76172  -8.8789
 0.85000    1.81     1.81   0.76186  -8.8790
 0.90000    1.81     1.81   0.76248  -8.8793
 0.95000    1.81     1.81   0.76268  -8.8793
 1.00000    1.81     1.81   0.76287  -8.8794
 1.05000    1.81     1.81   0.76266  -8.8795
 1.10000    1.81     1.81   0.76257  -8.8799
 1.15000    1.81     1.81   0.76255  -8.8799
 1.20000    1.81     1.81   0.76349  -8.8801
 1.25000    1.81     1.81   0.76393  -8.8802
 1.30000    1.81     1.81   0.76471  -8.8805
 1.35000    1.81     1.81   0.76400  -8.8805
 1.40000    1.81     1.81   0.76365  -8.8805
 1.45000    1.81     1.81   0.76395  -8.8808
 1.50000    1.81     1.81   0.76349  -8.8808
 1.55000    1.81     1.81   0.76446  -8.8809
 1.60000    1.81     1.81   0.76469  -8.8811
 1.65000    1.81     1.81   0.76646  -8.8812
 1.70000    1.81     1.81   0.76830  -8.8817
 1.75000    1.81     1.81   0.76864  -8.8814
 1.80000    1.81     1.81   0.76917  -8.8815
 1.85000    1.81     1.81   0.76999  -8.8817
 1.90000    1.81     1.81   0.76991  -8.8818
 1.95000    1.81     1.81   0.76862  -8.8819
 2.00000    1.81     1.81   0.76850  -8.8817
 2.05000    1.81     1.81   0.76986  -8.8821
 2.10000    1.81     1.81   0.77027  -8.8820
 2.15000    1.81     1.81   0.77076  -8.8822
 2.20000    1.81     1.81   0.77121  -8.8821
 2.25000    1.81     1.81   0.77137  -8.8820
 2.30000    1.81     1.81   0.77082  -8.8819
 2.35000    1.81     1.81   0.77098  -8.8819
 2.40000    1.81     1.81   0.77122  -8.8818
 2.45000    1.81     1.81   0.77184  -8.8819
 2.50000    1.81     1.81   0.77114  -8.8817
 2.55000    1.81     1.81   0.77110  -8.8817
 2.60000    1.81     1.81   0.77041  -8.8818
 2.65000    1.81     1.81   0.77094  -8.8816
 2.70000    1.81     1.81   0.77142  -8.8816
 2.75000    1.81     1.81   0.77145  -8.8815
 2.80000    1.81     1.81   0.77099  -8.8815
 2.85000    1.81     1.81   0.77055  -8.8815
 2.90000    1.81     1.81   0.77096  -8.8816
 2.95000    1.81     1.81   0.77030  -8.8813
 3.00000    1.81     1.81   0.77053  -8.8813
 3.05000    1.81     1.81   0.77023  -8.8813
 3.10000    1.81     1.81   0.77032  -8.8812
 3.15000    1.81     1.81   0.77099  -8.8811
 3.20000    1.81     1.81   0.77050  -8.8810
 3.25000    1.81     1.81   0.77022  -8.8809
 3.30000    1.81     1.81   0.77014  -8.8809
 3.35000    1.81     1.81   0.77018  -8.8808
 3.40000    1.81     1.81   0.76995  -8.8810
 3.45000    1.81     1.81   0.77039  -8.8809
 3.50000    1.81     1.81   0.76999  -8.8808
 3.55000    1.81     1.81   0.76976  -8.8810
 3.60000    1.81     1.81   0.77004  -8.8811
 3.65000    1.81     1.81   0.76802  -8.8807
 3.70000    1.81     1.81   0.76749  -8.8803
 3.75000    1.81     1.81   0.76705  -8.8803
 3.80000    1.81     1.81   0.76802  -8.8803
 3.85000    1.81     1.81   0.76887  -8.8805
 3.90000    1.81     1.81   0.76839  -8.8804
 3.95000    1.81     1.81   0.76901  -8.8806
 4.00000    1.81     1.81   0.76876  -8.8806
 4.00000    1.81     1.81   0.76873  -8.8806
 3.95000    1.81     1.81   0.76878  -8.8805
 3.90000    1.81     1.81   0.76899  -8.8806
 3.85000    1.81     1.81   0.76776  -8.8804
 3.80000    1.81     1.81   0.76735  -8.8802
 3.75000    1.81     1.81   0.76683  -8.8802
 3.70000    1.81     1.81   0.76767  -8.8803
 3.65000    1.81     1.81   0.76961  -8.8808
 3.60000    1.81     1.81   0.77032  -8.8806
 3.55000    1.81     1.81   0.77091  -8.8806
 3.50000    1.81     1.81   0.77140  -8.8806
 3.45000    1.81     1.81   0.77073  -8.8805
 3.40000    1.81     1.81   0.77181  -8.8803
 3.35000    1.81     1.81   0.77137  -8.8803
 3.30000    1.81     1.81   0.77257  -8.8802
 3.25000    1.81     1.81   0.77491  -8.8798
 3.20000    1.81     1.81   0.77512  -8.8798
 3.15000    1.81     1.81   0.77430  -8.8798
 3.10000    1.81     1.81   0.77537  -8.8799
 3.05000    1.81     1.81   0.77514  -8.8799
 3.00000    1.81     1.81   0.77558  -8.8800
 2.95000    1.81     1.81   0.77492  -8.8794
 2.90000    1.81     1.81   0.77450  -8.8798
 2.85000    1.81     1.81   0.77583  -8.8800
 2.80000    1.81     1.81   0.77540  -8.8798
 2.75000    1.81     1.81   0.77554  -8.8797
 2.70000    1.81     1.81   0.77480  -8.8797
 2.65000    1.81     1.81   0.77526  -8.8796
 2.60000    1.81     1.81   0.77521  -8.8798
 2.55000    1.81     1.81   0.77494  -8.8797
 2.50000    1.81     1.81   0.77588  -8.8799
 2.45000    1.81     1.81   0.77715  -8.8800
 2.40000    1.81     1.81   0.77533  -8.8797
 2.35000    1.81     1.81   0.77480  -8.8796
 2.30000    1.81     1.81   0.77653  -8.8799
 2.25000    1.81     1.81   0.77669  -8.8800
 2.20000    1.81     1.81   0.77774  -8.8801
 2.15000    1.81     1.81   0.77547  -8.8800
 2.10000    1.81     1.81   0.77494  -8.8799
 2.05000    1.81     1.81   0.77436  -8.8799
 2.00000    1.81     1.81   0.77452  -8.8799
 1.95000    1.81     1.81   0.77413  -8.8799
 1.90000    1.81     1.81   0.77390  -8.8797
 1.85000    1.81     1.81   0.77512  -8.8797
 1.80000    1.81     1.81   0.77491  -8.8798
 1.75000    1.81     1.81   0.77365  -8.8797
 1.70000    1.81     1.81   0.77271  -8.8796
 1.65000    1.81     1.81   0.77333  -8.8796
 1.60000    1.81     1.81   0.77413  -8.8796
 1.55000    1.81     1.81   0.77299  -8.8794
 1.50000    1.81     1.81   0.77291  -8.8792
 1.45000    1.81     1.81   0.77448  -8.8793
 1.40000    1.81     1.81   0.77491  -8.8793
 1.35000    1.81     1.81   0.77517  -8.8791
 1.30000    1.81     1.81   0.77590  -8.8789
 1.25000    1.81     1.81   0.77524  -8.8788
 1.20000    1.81     1.81   0.77586  -8.8787
 1.15000    1.81     1.81   0.77577  -8.8783
 1.10000    1.81     1.81   0.77600  -8.8783
 1.05000    1.81     1.81   0.77558  -8.8784
 1.00000    1.81     1.81   0.77411  -8.8780
 0.95000    1.81     1.81   0.77393  -8.8781
 0.90000    1.81     1.81   0.77445  -8.8779
 0.85000    1.81     1.81   0.77439  -8.8778
 0.80000    1.81     1.81   0.77521  -8.8777
 0.75000    1.81     1.81   0.77675  -8.8776
 0.70000    1.81     1.81   0.77549  -8.8775
 0.65000    1.81     1.81   0.77498  -8.8773
 0.60000    1.81     1.81   0.77492  -8.8773
 0.55000    1.81     1.81   0.77646  -8.8776
 0.50000    1.81     1.81   0.77809  -8.8778
 0.45000    1.81     1.81   0.77907  -8.8778
 0.40000    1.81     1.81   0.77843  -8.8777
 0.35000    1.81     1.81   0.77689  -8.8774
 0.30000    1.81     1.81   0.77668  -8.8775
 0.25000    1.81     1.81   0.77807  -8.8777
 0.20000    1.81     1.81   0.77903  -8.8777
 0.15000    1.81     1.81   0.77928  -8.8779
 0.10000    1.81     1.81   0.77770  -8.8777
 0.05000    1.81     1.81   0.77687  -8.8776
 -0.00000    1.81     1.81   0.77868  -8.8779
 0.00000    1.81     1.81   0.77908  -8.8780
 0.10000    1.81     1.81   0.77896  -8.8779
 0.20000    1.81     1.81   0.77825  -8.8781
 0.30000    1.81     1.81   0.77668  -8.8781
 0.40000    1.81     1.81   0.77671  -8.8781
 0.50000    1.81     1.81   0.77579  -8.8784
 0.60000    1.81     1.81   0.77659  -8.8786
 0.70000    1.81     1.81   0.77604  -8.8785
 0.80000    1.81     1.81   0.77664  -8.8790
 0.90000    1.81     1.81   0.77383  -8.8788
 1.00000    1.81     1.81   0.77485  -8.8794
 1.10000    1.81     1.81   0.77540  -8.8797
 1.20000    1.81     1.81   0.77284  -8.8797
 1.30000    1.81     1.81   0.77234  -8.8798
 1.40000    1.81     1.81   0.77434  -8.8802
 1.50000    1.81     1.81   0.77427  -8.8805
 1.60000    1.81     1.81   0.77250  -8.8806
 1.70000    1.81     1.81   0.77154  -8.8806
 1.80000    1.81     1.81   0.77319  -8.8810
 1.90000    1.81     1.81   0.77563  -8.8813
 2.00000    1.81     1.81   0.77600  -8.8813
 2.10000    1.81     1.81   0.77537  -8.8812
 2.20000    1.81     1.81   0.77657  -8.8813
 2.30000    1.81     1.81   0.77655  -8.8813
 2.40000    1.81     1.81   0.77737  -8.8814
 2.50000    1.81     1.81   0.77680  -8.8814
 2.60000    1.81     1.81   0.77678  -8.8814
 2.70000    1.81     1.81   0.77682  -8.8811
 2.80000    1.81     1.81   0.77742  -8.8811
 2.90000    1.81     1.81   0.77530  -8.8809
 3.00000    1.81     1.81   0.77726  -8.8810
 3.00000    1.81     1.81   0.77749  -8.8810
 2.90000    1.81     1.81   0.77696  -8.8811
 2.80000    1.81     1.81   0.77722  -8.8810
 2.70000    1.81     1.81   0.77800  -8.8809
 2.60000    1.81     1.81   0.77825  -8.8811
 2.50000    1.81     1.81   0.77735  -8.8811
 2.40000    1.81     1.81   0.77478  -8.8807
 2.30000    1.81     1.81   0.77478  -8.8807
 2.20000    1.81     1.81   0.77638  -8.8808
 2.10000    1.81     1.81   0.77544  -8.8807
 2.00000    1.81     1.81   0.77455  -8.8806
 1.90000    1.81     1.81   0.77324  -8.8803
 1.80000    1.81     1.81   0.77416  -8.8805
 1.70000    1.81     1.81   0.77338  -8.8805
 1.60000    1.81     1.81   0.77214  -8.8803
 1.50000    1.81     1.81   0.77425  -8.8799
 1.40000    1.81     1.81   0.77245  -8.8796
 1.30000    1.81     1.81   0.77475  -8.8798
 1.20000    1.81     1.81   0.77457  -8.8794
 1.10000    1.81     1.81   0.77574  -8.8794
 1.00000    1.81     1.81   0.77547  -8.8790
 0.90000    1.81     1.81   0.77384  -8.8787
 0.80000    1.81     1.81   0.77377  -8.8784
 0.70000    1.81     1.81   0.77422  -8.8783
 0.60000    1.81     1.81   0.77425  -8.8782
 0.50000    1.81     1.81   0.77579  -8.8784
 0.40000    1.81     1.81   0.77756  -8.8786
 0.30000    1.81     1.81   0.77894  -8.8786
 0.20000    1.81     1.81   0.77891  -8.8784
 0.10000    1.81     1.81   0.77930  -8.8787
 -0.00000    1.81     1.81   0.77770  -8.8786
