 Field[T] Tsmpl[K] Tcntr[K] Signal   Mirror[MM]
 0.00000    1.81     1.81   0.64153  -9.0028
 0.05000    1.81     1.81   0.64109  -9.0029
 0.10000    1.81     1.81   0.64085  -9.0027
 0.15000    1.81     1.81   0.64071  -9.0026
 0.20000    1.81     1.81   0.64032  -9.0027
 0.25000    1.81     1.81   0.64024  -9.0028
 0.30000    1.81     1.81   0.64020  -9.0029
 0.35000    1.81     1.81   0.64004  -9.0029
 0.40000    1.81     1.81   0.63963  -9.0027
 0.45000    1.81     1.81   0.63955  -9.0029
 0.50000    1.81     1.81   0.63961  -9.0030
 0.55000    1.81     1.81   0.63951  -9.0029
 0.60000    1.81     1.81   0.63920  -9.0030
 0.65000    1.81     1.81   0.63943  -9.0028
 0.70000    1.81     1.81   0.63887  -9.0028
 0.75000    1.81     1.81   0.63855  -9.0028
 0.80000    1.81     1.81   0.63806  -9.0029
 0.85000    1.81     1.81   0.63776  -9.0029
 0.90000    1.81     1.81   0.63792  -9.0027
 0.95000    1.81     1.81   0.63778  -9.0027
 1.00000    1.81     1.81   0.63737  -9.0028
 1.05000    1.81     1.81   0.63700  -9.0028
 1.10000    1.81     1.81   0.63659  -9.0027
 1.15000    1.81     1.81   0.63665  -9.0029
 1.20000    1.81     1.81   0.63627  -9.0028
 1.25000    1.81     1.81   0.63588  -9.0027
 1.30000    1.81     1.81   0.63518  -9.0029
 1.35000    1.81     1.81   0.63498  -9.0028
 1.40000    1.81     1.81   0.63426  -9.0028
 1.45000    1.81     1.81   0.63366  -9.0029
 1.50000    1.81     1.81   0.63361  -9.0028
 1.55000    1.81     1.81   0.63297  -9.0028
 1.60000    1.81     1.81   0.63300  -9.0029
 1.65000    1.81     1.81   0.63282  -9.0030
 1.70000    1.81     1.81   0.63283  -9.0030
 1.75000    1.81     1.81   0.63255  -9.0030
 1.80000    1.81     1.81   0.63216  -9.0028
 1.85000    1.81     1.81   0.63168  -9.0029
 1.90000    1.81     1.81   0.63147  -9.0030
 1.95000    1.81     1.81   0.63092  -9.0031
 2.00000    1.81     1.81   0.63070  -9.0031
 2.05000    1.81     1.81   0.63063  -9.0029
 2.10000    1.81     1.81   0.63083  -9.0031
 2.15000    1.81     1.81   0.63071  -9.0033
 2.20000    1.81     1.81   0.63115  -9.0032
 2.25000    1.81     1.81   0.63057  -9.0033
 2.30000    1.81     1.81   0.63010  -9.0032
 2.35000    1.81     1.81   0.62987  -9.0033
 2.40000    1.81     1.81   0.62954  -9.0032
 2.45000    1.81     1.81   0.62912  -9.0032
 2.50000    1.81     1.81   0.62915  -9.0032
 2.55000    1.81     1.81   0.62870  -9.0032
 2.60000    1.81     1.81   0.62852  -9.0031
 2.65000    1.81     1.81   0.62923  -9.0034
 2.70000    1.81     1.81   0.62850  -9.0035
 2.75000    1.81     1.81   0.62773  -9.0035
 2.80000    1.81     1.81   0.62767  -9.0035
 2.85000    1.81     1.81   0.62776  -9.0035
 2.90000    1.81     1.81   0.62769  -9.0034
 2.95000    1.81     1.81   0.62778  -9.0035
 3.00000    1.81     1.81   0.62761  -9.0036
 3.05000    1.81     1.81   0.62763  -9.0037
 3.10000    1.81     1.81   0.62762  -9.0038
 3.15000    1.81     1.81   0.62766  -9.0036
 3.20000    1.81     1.81   0.62784  -9.0036
 3.25000    1.81     1.81   0.62736  -9.0036
 3.30000    1.81     1.81   0.62714  -9.0037
 3.35000    1.81     1.81   0.62726  -9.0037
 3.40000    1.81     1.81   0.62752  -9.0037
 3.45000    1.81     1.81   0.62700  -9.0035
 3.50000    1.81     1.81   0.62697  -9.0036
 3.55000    1.81     1.81   0.62710  -9.0035
 3.60000    1.81     1.81   0.62692  -9.0035
 3.65000    1.81     1.81   0.62692  -9.0036
 3.70000    1.81     1.81   0.62644  -9.0036
 3.75000    1.81     1.81   0.62611  -9.0036
 3.80000    1.81     1.81   0.62572  -9.0035
 3.85000    1.81     1.81   0.62594  -9.0036
 3.90000    1.81     1.81   0.62623  -9.0034
 3.95000    1.81     1.81   0.62634  -9.0033
 4.00000    1.81     1.81   0.62610  -9.0032
 4.05000    1.81     1.81   0.62577  -9.0031
 4.10000    1.81     1.81   0.62550  -9.0033
 4.15000    1.81     1.81   0.62517  -9.0033
 4.20000    1.81     1.81   0.62503  -9.0032
 4.25000    1.81     1.81   0.62526  -9.0034
 4.30000    1.81     1.81   0.62499  -9.0031
 4.35000    1.81     1.81   0.62518  -9.0033
 4.40000    1.81     1.81   0.62564  -9.0034
 4.45000    1.81     1.81   0.62518  -9.0034
 4.50000    1.81     1.81   0.62496  -9.0033
 4.55000    1.81     1.81   0.62485  -9.0033
 4.60000    1.81     1.81   0.62462  -9.0032
 4.65000    1.81     1.81   0.62476  -9.0033
 4.70000    1.81     1.81   0.62504  -9.0032
 4.75000    1.81     1.81   0.62459  -9.0032
 4.80000    1.81     1.81   0.62392  -9.0030
 4.85000    1.81     1.81   0.62351  -9.0030
 4.90000    1.81     1.81   0.62333  -9.0030
 4.95000    1.81     1.81   0.62334  -9.0029
 5.00000    1.81     1.81   0.62347  -9.0029
 5.00000    1.81     1.81   0.62322  -9.0030
 4.95000    1.81     1.81   0.62382  -9.0031
 4.90000    1.81     1.81   0.62328  -9.0032
 4.85000    1.81     1.81   0.62316  -9.0031
 4.80000    1.81     1.81   0.62325  -9.0032
 4.75000    1.81     1.81   0.62276  -9.0031
 4.70000    1.81     1.81   0.62308  -9.0031
 4.65000    1.81     1.81   0.62318  -9.0031
 4.60000    1.81     1.81   0.62342  -9.0030
 4.55000    1.81     1.81   0.62330  -9.0030
 4.50000    1.81     1.81   0.62275  -9.0030
 4.45000    1.81     1.81   0.62310  -9.0030
 4.40000    1.81     1.81   0.62286  -9.0029
 4.35000    1.81     1.81   0.62304  -9.0028
 4.30000    1.81     1.81   0.62288  -9.0028
 4.25000    1.81     1.81   0.62292  -9.0029
 4.20000    1.81     1.81   0.62279  -9.0031
 4.15000    1.81     1.81   0.62325  -9.0029
 4.10000    1.81     1.81   0.62349  -9.0028
 4.05000    1.81     1.81   0.62363  -9.0029
 4.00000    1.81     1.81   0.62361  -9.0030
 3.95000    1.81     1.81   0.62318  -9.0028
 3.90000    1.81     1.81   0.62350  -9.0029
 3.85000    1.81     1.81   0.62319  -9.0029
 3.80000    1.81     1.81   0.62422  -9.0028
 3.75000    1.81     1.81   0.62395  -9.0028
 3.70000    1.81     1.81   0.62354  -9.0028
 3.65000    1.81     1.81   0.62340  -9.0030
 3.60000    1.81     1.81   0.62322  -9.0028
 3.55000    1.81     1.81   0.62298  -9.0028
 3.50000    1.81     1.81   0.62303  -9.0027
 3.45000    1.81     1.81   0.62302  -9.0028
 3.40000    1.81     1.81   0.62354  -9.0028
 3.35000    1.81     1.81   0.62380  -9.0028
 3.30000    1.81     1.81   0.62316  -9.0029
 3.25000    1.81     1.81   0.62338  -9.0030
 3.20000    1.81     1.81   0.62352  -9.0029
 3.15000    1.81     1.81   0.62356  -9.0029
 3.10000    1.81     1.81   0.62326  -9.0029
 3.05000    1.81     1.81   0.62296  -9.0026
 3.00000    1.81     1.81   0.62261  -9.0025
 2.95000    1.81     1.81   0.62224  -9.0024
 2.90000    1.81     1.81   0.62246  -9.0026
 2.85000    1.81     1.81   0.62281  -9.0027
 2.80000    1.81     1.81   0.62284  -9.0025
 2.75000    1.81     1.81   0.62241  -9.0024
 2.70000    1.81     1.81   0.62186  -9.0025
 2.65000    1.81     1.81   0.62176  -9.0022
 2.60000    1.81     1.81   0.62202  -9.0022
 2.55000    1.81     1.81   0.62208  -9.0021
 2.50000    1.81     1.81   0.62254  -9.0022
 2.45000    1.81     1.81   0.62310  -9.0022
 2.40000    1.81     1.81   0.62319  -9.0020
 2.35000    1.81     1.81   0.62291  -9.0019
 2.30000    1.81     1.81   0.62238  -9.0018
 2.25000    1.81     1.81   0.62300  -9.0018
 2.20000    1.81     1.81   0.62295  -9.0019
 2.15000    1.81     1.81   0.62322  -9.0019
 2.10000    1.81     1.81   0.62303  -9.0018
 2.05000    1.81     1.81   0.62319  -9.0018
 2.00000    1.81     1.81   0.62324  -9.0018
 1.95000    1.81     1.81   0.62425  -9.0018
 1.90000    1.81     1.81   0.62455  -9.0017
 1.85000    1.81     1.81   0.62453  -9.0019
 1.80000    1.81     1.81   0.62451  -9.0019
 1.75000    1.81     1.81   0.62440  -9.0019
 1.70000    1.81     1.81   0.62436  -9.0018
 1.65000    1.81     1.81   0.62413  -9.0017
 1.60000    1.81     1.81   0.62406  -9.0019
 1.55000    1.81     1.81   0.62444  -9.0016
 1.50000    1.81     1.81   0.62490  -9.0014
 1.45000    1.81     1.81   0.62501  -9.0014
 1.40000    1.81     1.81   0.62466  -9.0013
 1.35000    1.81     1.81   0.62455  -9.0011
 1.30000    1.81     1.81   0.62465  -9.0012
 1.25000    1.81     1.81   0.62454  -9.0012
 1.20000    1.81     1.81   0.62505  -9.0011
 1.15000    1.81     1.81   0.62593  -9.0010
 1.10000    1.81     1.81   0.62590  -9.0009
 1.05000    1.81     1.81   0.62574  -9.0011
 1.00000    1.81     1.81   0.62584  -9.0010
 0.95000    1.81     1.81   0.62619  -9.0009
 0.90000    1.81     1.81   0.62619  -9.0009
 0.85000    1.81     1.81   0.62631  -9.0013
 0.80000    1.81     1.81   0.62700  -9.0014
 0.75000    1.81     1.81   0.62769  -9.0017
 0.70000    1.81     1.81   0.62860  -9.0016
 0.65000    1.81     1.81   0.62900  -9.0012
 0.60000    1.81     1.81   0.62925  -9.0017
 0.55000    1.81     1.81   0.62837  -9.0014
 0.50000    1.81     1.81   0.62775  -9.0013
 0.45000    1.81     1.81   0.62736  -9.0013
 0.40000    1.81     1.81   0.62746  -9.0013
 0.35000    1.81     1.81   0.62815  -9.0015
 0.30000    1.81     1.81   0.62802  -9.0015
 0.25000    1.81     1.81   0.62742  -9.0014
 0.20000    1.81     1.81   0.62788  -9.0013
 0.15000    1.81     1.81   0.62797  -9.0014
 0.10000    1.81     1.81   0.62739  -9.0015
 0.05000    1.81     1.81   0.62739  -9.0013
 -0.00000    1.81     1.81   0.62710  -9.0014
