 Field[T] Tsmpl[K] Tcntr[K] Signal   Mirror[MM]
 0.00000    1.80     1.80   0.28450  -8.9302
 0.05000    1.80     1.80   0.28435  -8.9303
 0.10000    1.80     1.80   0.28456  -8.9303
 0.15000    1.80     1.80   0.28436  -8.9303
 0.20000    1.80     1.80   0.28418  -8.9306
 0.25000    1.80     1.80   0.28422  -8.9305
 0.30000    1.80     1.80   0.28422  -8.9305
 0.35000    1.80     1.80   0.28433  -8.9306
 0.40000    1.80     1.80   0.28447  -8.9301
 0.45000    1.80     1.80   0.28433  -8.9302
 0.50000    1.80     1.80   0.28441  -8.9304
 0.55000    1.80     1.80   0.28448  -8.9306
 0.60000    1.80     1.80   0.28449  -8.9306
 0.65000    1.80     1.80   0.28454  -8.9306
 0.70000    1.80     1.80   0.28463  -8.9303
 0.75000    1.80     1.80   0.28499  -8.9303
 0.80000    1.80     1.80   0.28515  -8.9305
 0.85000    1.80     1.80   0.28506  -8.9305
 0.90000    1.80     1.80   0.28511  -8.9306
 0.95000    1.80     1.80   0.28521  -8.9305
 1.00000    1.80     1.80   0.28492  -8.9302
 1.05000    1.80     1.80   0.28516  -8.9306
 1.10000    1.80     1.80   0.28524  -8.9308
 1.15000    1.80     1.80   0.28518  -8.9308
 1.20000    1.80     1.80   0.28500  -8.9308
 1.25000    1.80     1.80   0.28529  -8.9307
 1.30000    1.80     1.80   0.28527  -8.9309
 1.35000    1.80     1.80   0.28519  -8.9308
 1.40000    1.80     1.80   0.28564  -8.9308
 1.45000    1.80     1.80   0.28527  -8.9310
 1.50000    1.80     1.80   0.28516  -8.9309
 1.55000    1.80     1.80   0.28501  -8.9311
 1.60000    1.80     1.80   0.28535  -8.9312
 1.65000    1.80     1.80   0.28522  -8.9310
 1.70000    1.80     1.80   0.28494  -8.9311
 1.75000    1.80     1.80   0.28453  -8.9310
 1.80000    1.80     1.80   0.28450  -8.9310
 1.85000    1.80     1.80   0.28429  -8.9311
 1.90000    1.80     1.80   0.28467  -8.9311
 1.95000    1.80     1.80   0.28424  -8.9309
 2.00000    1.80     1.80   0.28456  -8.9310
 2.05000    1.80     1.80   0.28452  -8.9310
 2.10000    1.80     1.80   0.28415  -8.9311
 2.15000    1.80     1.80   0.28421  -8.9310
 2.20000    1.80     1.80   0.28434  -8.9309
 2.25000    1.80     1.80   0.28424  -8.9308
 2.30000    1.80     1.80   0.28427  -8.9310
 2.35000    1.80     1.80   0.28390  -8.9309
 2.40000    1.80     1.80   0.28411  -8.9306
 2.45000    1.80     1.80   0.28393  -8.9309
 2.50000    1.80     1.80   0.28390  -8.9308
 2.55000    1.80     1.80   0.28375  -8.9307
 2.60000    1.80     1.80   0.28375  -8.9304
 2.65000    1.80     1.80   0.28380  -8.9305
 2.70000    1.80     1.80   0.28378  -8.9305
 2.75000    1.80     1.80   0.28355  -8.9307
 2.80000    1.80     1.80   0.28353  -8.9307
 2.85000    1.80     1.80   0.28354  -8.9307
 2.90000    1.80     1.80   0.28354  -8.9307
 2.95000    1.80     1.80   0.28315  -8.9305
 3.00000    1.80     1.80   0.28335  -8.9305
 3.05000    1.80     1.80   0.28329  -8.9304
 3.10000    1.80     1.80   0.28314  -8.9305
 3.15000    1.80     1.80   0.28331  -8.9304
 3.20000    1.80     1.80   0.28337  -8.9304
 3.25000    1.80     1.80   0.28322  -8.9304
 3.30000    1.80     1.80   0.28314  -8.9306
 3.35000    1.80     1.80   0.28283  -8.9308
 3.40000    1.80     1.80   0.28303  -8.9304
 3.45000    1.80     1.80   0.28297  -8.9304
 3.50000    1.80     1.80   0.28255  -8.9304
 3.55000    1.80     1.80   0.28280  -8.9304
 3.60000    1.80     1.80   0.28283  -8.9301
 3.65000    1.80     1.80   0.28273  -8.9304
 3.70000    1.80     1.80   0.28264  -8.9300
 3.75000    1.80     1.80   0.28240  -8.9301
 3.80000    1.80     1.80   0.28225  -8.9302
 3.85000    1.80     1.80   0.28238  -8.9302
 3.90000    1.80     1.80   0.28238  -8.9300
 3.95000    1.80     1.80   0.28228  -8.9300
 4.00000    1.80     1.80   0.28215  -8.9299
 4.05000    1.80     1.80   0.28216  -8.9300
 4.10000    1.80     1.80   0.28205  -8.9300
 4.15000    1.80     1.80   0.28217  -8.9300
 4.20000    1.80     1.80   0.28205  -8.9299
 4.25000    1.80     1.80   0.28181  -8.9298
 4.30000    1.80     1.80   0.28194  -8.9301
 4.35000    1.80     1.80   0.28210  -8.9301
 4.40000    1.80     1.80   0.28198  -8.9299
 4.45000    1.80     1.80   0.28163  -8.9298
 4.50000    1.80     1.80   0.28180  -8.9299
 4.55000    1.80     1.80   0.28166  -8.9299
 4.60000    1.80     1.80   0.28159  -8.9299
 4.65000    1.80     1.80   0.28158  -8.9301
 4.70000    1.80     1.80   0.28158  -8.9299
 4.75000    1.80     1.80   0.28131  -8.9299
 4.80000    1.80     1.80   0.28132  -8.9298
 4.85000    1.80     1.80   0.28113  -8.9299
 4.90000    1.80     1.80   0.28126  -8.9297
 4.95000    1.80     1.80   0.28117  -8.9297
 5.00000    1.80     1.80   0.28101  -8.9296
 5.00000    1.80     1.80   0.28106  -8.9297
 4.95000    1.80     1.80   0.28105  -8.9298
 4.90000    1.80     1.80   0.28095  -8.9298
 4.85000    1.80     1.80   0.28098  -8.9298
 4.80000    1.80     1.80   0.28112  -8.9298
 4.75000    1.80     1.80   0.28133  -8.9298
 4.70000    1.80     1.80   0.28140  -8.9296
 4.65000    1.80     1.80   0.28153  -8.9298
 4.60000    1.80     1.80   0.28185  -8.9299
 4.55000    1.80     1.80   0.28181  -8.9296
 4.50000    1.80     1.80   0.28177  -8.9294
 4.45000    1.80     1.80   0.28178  -8.9297
 4.40000    1.80     1.80   0.28192  -8.9298
 4.35000    1.80     1.80   0.28175  -8.9298
 4.30000    1.80     1.80   0.28169  -8.9296
 4.25000    1.80     1.80   0.28184  -8.9297
 4.20000    1.80     1.80   0.28170  -8.9296
 4.15000    1.80     1.80   0.28177  -8.9297
 4.10000    1.80     1.80   0.28184  -8.9298
 4.05000    1.80     1.80   0.28187  -8.9297
 4.00000    1.80     1.80   0.28187  -8.9295
 3.95000    1.80     1.80   0.28185  -8.9295
 3.90000    1.80     1.80   0.28187  -8.9296
 3.85000    1.80     1.80   0.28190  -8.9295
 3.80000    1.80     1.80   0.28184  -8.9296
 3.75000    1.80     1.80   0.28193  -8.9297
 3.70000    1.80     1.80   0.28187  -8.9298
 3.65000    1.80     1.80   0.28193  -8.9295
 3.60000    1.80     1.80   0.28220  -8.9294
 3.55000    1.80     1.80   0.28208  -8.9296
 3.50000    1.80     1.80   0.28218  -8.9295
 3.45000    1.80     1.80   0.28239  -8.9294
 3.40000    1.80     1.80   0.28226  -8.9295
 3.35000    1.80     1.80   0.28225  -8.9296
 3.30000    1.80     1.80   0.28242  -8.9294
 3.25000    1.80     1.80   0.28245  -8.9296
 3.20000    1.80     1.80   0.28251  -8.9294
 3.15000    1.80     1.80   0.28247  -8.9295
 3.10000    1.80     1.80   0.28271  -8.9295
 3.05000    1.80     1.80   0.28262  -8.9295
 3.00000    1.80     1.80   0.28274  -8.9295
 2.95000    1.80     1.80   0.28284  -8.9294
 2.90000    1.80     1.80   0.28292  -8.9293
 2.85000    1.80     1.80   0.28308  -8.9293
 2.80000    1.80     1.80   0.28300  -8.9295
 2.75000    1.80     1.80   0.28322  -8.9293
 2.70000    1.80     1.80   0.28336  -8.9295
 2.65000    1.80     1.80   0.28326  -8.9294
 2.60000    1.80     1.80   0.28303  -8.9293
 2.55000    1.80     1.80   0.28280  -8.9295
 2.50000    1.80     1.80   0.28276  -8.9295
 2.45000    1.80     1.80   0.28277  -8.9291
 2.40000    1.80     1.80   0.28282  -8.9294
 2.35000    1.80     1.80   0.28300  -8.9294
 2.30000    1.80     1.80   0.28298  -8.9293
 2.25000    1.80     1.80   0.28316  -8.9295
 2.20000    1.80     1.80   0.28320  -8.9292
 2.15000    1.80     1.80   0.28335  -8.9292
 2.10000    1.80     1.80   0.28344  -8.9295
 2.05000    1.80     1.80   0.28378  -8.9294
 2.00000    1.80     1.80   0.28366  -8.9294
 1.95000    1.80     1.80   0.28362  -8.9293
 1.90000    1.80     1.80   0.28373  -8.9294
 1.85000    1.80     1.80   0.28400  -8.9295
 1.80000    1.80     1.80   0.28379  -8.9295
 1.75000    1.80     1.80   0.28376  -8.9290
 1.70000    1.80     1.80   0.28385  -8.9293
 1.65000    1.80     1.80   0.28406  -8.9293
 1.60000    1.80     1.80   0.28402  -8.9294
 1.55000    1.80     1.80   0.28438  -8.9292
 1.50000    1.80     1.80   0.28459  -8.9293
 1.45000    1.80     1.80   0.28479  -8.9296
 1.40000    1.80     1.80   0.28487  -8.9295
 1.35000    1.80     1.80   0.28500  -8.9296
 1.30000    1.80     1.80   0.28503  -8.9294
 1.25000    1.80     1.80   0.28505  -8.9294
 1.20000    1.80     1.80   0.28490  -8.9293
 1.15000    1.80     1.80   0.28486  -8.9295
 1.10000    1.80     1.80   0.28485  -8.9293
 1.05000    1.80     1.80   0.28505  -8.9294
 1.00000    1.80     1.80   0.28518  -8.9296
 0.95000    1.80     1.80   0.28539  -8.9299
 0.90000    1.80     1.80   0.28565  -8.9296
 0.85000    1.80     1.80   0.28573  -8.9295
 0.80000    1.80     1.80   0.28552  -8.9297
 0.75000    1.80     1.80   0.28543  -8.9297
 0.70000    1.80     1.80   0.28569  -8.9297
 0.65000    1.80     1.80   0.28552  -8.9297
 0.60000    1.80     1.80   0.28569  -8.9296
 0.55000    1.80     1.80   0.28576  -8.9296
 0.50000    1.80     1.80   0.28602  -8.9296
 0.45000    1.80     1.80   0.28587  -8.9299
 0.40000    1.80     1.80   0.28580  -8.9296
 0.35000    1.80     1.80   0.28587  -8.9296
 0.30000    1.80     1.80   0.28573  -8.9297
 0.25000    1.80     1.80   0.28573  -8.9299
 0.20000    1.80     1.80   0.28584  -8.9297
 0.15000    1.80     1.80   0.28607  -8.9294
 0.10000    1.80     1.80   0.28641  -8.9294
 0.05000    1.80     1.80   0.28663  -8.9296
 -0.00000    1.80     1.80   0.28645  -8.9296
