 Field[T] Tsmpl[K] Tcntr[K] Signal
 0.00000    1.85     1.85   4.21320
 -0.05000    1.85     1.85   4.20990
 -0.10000    1.85     1.85   4.21340
 -0.15000    1.85     1.85   4.21260
 -0.20000    1.85     1.85   4.21560
 -0.25000    1.85     1.85   4.19840
 -0.30000    1.85     1.85   4.19560
 -0.35000    1.85     1.85   4.19720
 -0.40000    1.85     1.85   4.19570
 -0.45000    1.85     1.85   4.19170
 -0.50000    1.85     1.85   4.19700
 -0.55000    1.85     1.85   4.19700
 -0.60000    1.85     1.85   4.20000
 -0.65000    1.85     1.85   4.19690
 -0.70000    1.85     1.85   4.20560
 -0.75000    1.85     1.85   4.20520
 -0.80000    1.85     1.85   4.20690
 -0.85000    1.85     1.85   4.20860
 -0.90000    1.85     1.85   4.21110
 -0.95000    1.85     1.85   4.21350
 -1.00000    1.85     1.85   4.21240
 -1.05000    1.85     1.85   4.21360
 -1.10000    1.85     1.85   4.21350
 -1.15000    1.85     1.85   4.21480
 -1.20000    1.85     1.85   4.21310
 -1.25000    1.85     1.85   4.21870
 -1.30000    1.85     1.85   4.21790
 -1.35000    1.85     1.85   4.22240
 -1.40000    1.85     1.85   4.22850
 -1.45000    1.85     1.85   4.23010
 -1.50000    1.85     1.85   4.23050
 -1.55000    1.85     1.85   4.22940
 -1.60000    1.85     1.85   4.23250
 -1.65000    1.85     1.85   4.23180
 -1.70000    1.85     1.85   4.23020
 -1.75000    1.85     1.85   4.22470
 -1.80000    1.85     1.85   4.22990
 -1.85000    1.85     1.85   4.23210
 -1.90000    1.85     1.85   4.23170
 -1.95000    1.85     1.85   4.22980
 -2.00000    1.85     1.85   4.23080
 -2.05000    1.85     1.85   4.23160
 -2.10000    1.85     1.85   4.23240
 -2.15000    1.85     1.85   4.23400
 -2.20000    1.85     1.85   4.23680
 -2.25000    1.85     1.85   4.23520
 -2.30000    1.85     1.85   4.23950
 -2.35000    1.85     1.85   4.24210
 -2.40000    1.85     1.85   4.24150
 -2.45000    1.85     1.85   4.23810
 -2.50000    1.85     1.85   4.23470
 -2.55000    1.85     1.85   4.24070
 -2.60000    1.85     1.85   4.23720
 -2.65000    1.85     1.85   4.23520
 -2.70000    1.85     1.85   4.23580
 -2.75000    1.85     1.85   4.23610
 -2.80000    1.85     1.85   4.23750
 -2.85000    1.85     1.85   4.24210
 -2.90000    1.85     1.85   4.24490
 -2.95000    1.85     1.85   4.25510
 -3.00000    1.85     1.85   4.25480
 -3.05000    1.85     1.85   4.25270
 -3.10000    1.85     1.85   4.25400
 -3.15000    1.85     1.85   4.26000
 -3.20000    1.85     1.85   4.26280
 -3.25000    1.85     1.85   4.26180
 -3.30000    1.85     1.85   4.26680
 -3.35000    1.85     1.85   4.26640
 -3.40000    1.85     1.85   4.26380
 -3.45000    1.85     1.85   4.26310
 -3.50000    1.85     1.85   4.25730
 -3.55000    1.85     1.85   4.26590
 -3.60000    1.85     1.85   4.27320
 -3.65000    1.85     1.85   4.27610
 -3.70000    1.85     1.85   4.27510
 -3.75000    1.85     1.85   4.27150
 -3.80000    1.85     1.85   4.27220
 -3.85000    1.85     1.85   4.27200
 -3.90000    1.85     1.85   4.27760
 -3.95000    1.85     1.85   4.28160
 -4.00000    1.85     1.85   4.27410
 -4.05000    1.85     1.85   4.27570
 -4.10000    1.85     1.85   4.27470
 -4.15000    1.85     1.85   4.27510
 -4.20000    1.85     1.85   4.27340
 -4.25000    1.85     1.85   4.27340
 -4.30000    1.85     1.85   4.27180
 -4.35000    1.85     1.85   4.27780
 -4.40000    1.85     1.85   4.27790
 -4.45000    1.85     1.85   4.28660
 -4.50000    1.85     1.85   4.28150
 -4.55000    1.85     1.85   4.28350
 -4.60000    1.85     1.85   4.28320
 -4.65000    1.85     1.85   4.28080
 -4.70000    1.85     1.85   4.27610
 -4.75000    1.85     1.85   4.27700
 -4.80000    1.85     1.85   4.27320
 -4.85000    1.85     1.85   4.27690
 -4.90000    1.85     1.85   4.28360
 -4.95000    1.85     1.85   4.27810
 -5.00000    1.85     1.85   4.27990
 -5.05000    1.85     1.85   4.28220
 -5.10000    1.85     1.85   4.28610
 -5.15000    1.85     1.85   4.27740
 -5.20000    1.85     1.85   4.28050
 -5.25000    1.85     1.85   4.27790
 -5.30000    1.85     1.85   4.27370
 -5.35000    1.85     1.85   4.26840
 -5.40000    1.85     1.85   4.26860
 -5.45000    1.85     1.85   4.26600
 -5.50000    1.85     1.85   4.26120
 -5.55000    1.85     1.85   4.26830
 -5.60000    1.85     1.85   4.25680
 -5.65000    1.85     1.85   4.25310
 -5.70000    1.85     1.85   4.25480
 -5.75000    1.85     1.85   4.25230
 -5.80000    1.85     1.85   4.25900
 -5.85000    1.85     1.85   4.26060
 -5.90000    1.85     1.85   4.25960
 -5.95000    1.85     1.85   4.25920
 -6.00000    1.85     1.85   4.26310
 -6.05000    1.85     1.85   4.25760
 -6.10000    1.85     1.85   4.27240
 -6.15000    1.85     1.85   4.26110
 -6.20000    1.85     1.85   4.25980
 -6.25000    1.85     1.85   4.25300
 -6.30000    1.85     1.85   4.25140
 -6.35000    1.85     1.85   4.24940
 -6.40000    1.85     1.85   4.24980
 -6.45000    1.85     1.85   4.25070
 -6.50000    1.85     1.85   4.25700
 -6.55000    1.85     1.85   4.25420
 -6.60000    1.85     1.85   4.24290
 -6.65000    1.85     1.85   4.23820
 -6.70000    1.85     1.85   4.23830
 -6.75000    1.85     1.85   4.24530
 -6.80000    1.85     1.85   4.28360
 -6.85000    1.85     1.85   4.24120
 -6.90000    1.85     1.85   4.23260
 -6.95000    1.85     1.85   4.23470
 -7.00000    1.85     1.85   4.23500
 -7.00000    1.85     1.85   4.23560
 -6.95000    1.85     1.85   4.23520
 -6.90000    1.85     1.85   4.23560
 -6.85000    1.85     1.85   4.23700
 -6.80000    1.85     1.85   4.24200
 -6.75000    1.85     1.85   4.24100
 -6.70000    1.85     1.85   4.23880
 -6.65000    1.85     1.85   4.23900
 -6.60000    1.85     1.85   4.24530
 -6.55000    1.85     1.85   4.24760
 -6.50000    1.85     1.85   4.24920
 -6.45000    1.85     1.85   4.24590
 -6.40000    1.85     1.85   4.25050
 -6.35000    1.85     1.85   4.23700
 -6.30000    1.85     1.85   4.24000
 -6.25000    1.85     1.85   4.23560
 -6.20000    1.85     1.85   4.23320
 -6.15000    1.85     1.85   4.23660
 -6.10000    1.85     1.85   4.24050
 -6.05000    1.85     1.85   4.24110
 -6.00000    1.85     1.85   4.23500
 -5.95000    1.85     1.85   4.23680
 -5.90000    1.85     1.85   4.24370
 -5.85000    1.85     1.85   4.25310
 -5.80000    1.85     1.85   4.24440
 -5.75000    1.85     1.85   4.24610
 -5.70000    1.85     1.85   4.25490
 -5.65000    1.85     1.85   4.25490
 -5.60000    1.85     1.85   4.25270
 -5.55000    1.85     1.85   4.23570
 -5.50000    1.85     1.85   4.23480
 -5.45000    1.85     1.85   4.23020
 -5.40000    1.85     1.85   4.23190
 -5.35000    1.85     1.85   4.23320
 -5.30000    1.85     1.85   4.23330
 -5.25000    1.85     1.85   4.23850
 -5.20000    1.85     1.85   4.23550
 -5.15000    1.85     1.85   4.23620
 -5.10000    1.85     1.85   4.23550
 -5.05000    1.85     1.85   4.23860
 -5.00000    1.85     1.85   4.24180
 -4.95000    1.85     1.85   4.24050
 -4.90000    1.85     1.85   4.24470
 -4.85000    1.85     1.85   4.23400
 -4.80000    1.85     1.85   4.23590
 -4.75000    1.85     1.85   4.23390
 -4.70000    1.85     1.85   4.23020
 -4.65000    1.85     1.85   4.22750
 -4.60000    1.85     1.85   4.22430
 -4.55000    1.85     1.85   4.21930
 -4.50000    1.85     1.85   4.22470
 -4.45000    1.85     1.85   4.21650
 -4.40000    1.85     1.85   4.21750
 -4.35000    1.85     1.85   4.21960
 -4.30000    1.85     1.85   4.21900
 -4.25000    1.85     1.85   4.21550
 -4.20000    1.85     1.85   4.21290
 -4.15000    1.85     1.85   4.21390
 -4.10000    1.85     1.85   4.21060
 -4.05000    1.85     1.85   4.20890
 -4.00000    1.85     1.85   4.20460
 -3.95000    1.85     1.85   4.20250
 -3.90000    1.85     1.85   4.20220
 -3.85000    1.85     1.85   4.19860
 -3.80000    1.85     1.85   4.19800
 -3.75000    1.85     1.85   4.19950
 -3.70000    1.85     1.85   4.19810
 -3.65000    1.85     1.85   4.19560
 -3.60000    1.85     1.85   4.19370
 -3.55000    1.85     1.85   4.18720
 -3.50000    1.85     1.85   4.18690
 -3.45000    1.85     1.85   4.18110
 -3.40000    1.85     1.85   4.18260
 -3.35000    1.85     1.85   4.17820
 -3.30000    1.85     1.85   4.17550
 -3.25000    1.85     1.85   4.17510
 -3.20000    1.85     1.85   4.17160
 -3.15000    1.85     1.85   4.16860
 -3.10000    1.85     1.85   4.16690
 -3.05000    1.85     1.85   4.16760
 -3.00000    1.85     1.85   4.17780
 -2.95000    1.85     1.85   4.16300
 -2.90000    1.85     1.85   4.16280
 -2.85000    1.85     1.85   4.15690
 -2.80000    1.85     1.85   4.15740
 -2.75000    1.85     1.85   4.15360
 -2.70000    1.85     1.85   4.15180
 -2.65000    1.85     1.85   4.15280
 -2.60000    1.85     1.85   4.15370
 -2.55000    1.85     1.85   4.15340
 -2.50000    1.85     1.85   4.15110
 -2.45000    1.85     1.85   4.15960
 -2.40000    1.85     1.85   4.15870
 -2.35000    1.85     1.85   4.14860
 -2.30000    1.85     1.85   4.14960
 -2.25000    1.85     1.85   4.15730
 -2.20000    1.85     1.85   4.15550
 -2.15000    1.85     1.85   4.15540
 -2.10000    1.85     1.85   4.14840
 -2.05000    1.85     1.85   4.15120
 -2.00000    1.85     1.85   4.15400
 -1.95000    1.85     1.85   4.15810
 -1.90000    1.85     1.85   4.15670
 -1.85000    1.85     1.85   4.16110
 -1.80000    1.85     1.85   4.15140
 -1.75000    1.85     1.85   4.14530
 -1.70000    1.85     1.85   4.13980
 -1.65000    1.85     1.85   4.14000
 -1.60000    1.85     1.85   4.14040
 -1.55000    1.85     1.85   4.14890
 -1.50000    1.85     1.85   4.14290
 -1.45000    1.85     1.85   4.13520
 -1.40000    1.85     1.85   4.13670
 -1.35000    1.85     1.85   4.13620
 -1.30000    1.85     1.85   4.13400
 -1.25000    1.85     1.85   4.13880
 -1.20000    1.85     1.85   4.13010
 -1.15000    1.85     1.85   4.12990
 -1.10000    1.85     1.85   4.12670
 -1.05000    1.85     1.85   4.13040
 -1.00000    1.85     1.85   4.12320
 -0.95000    1.85     1.85   4.12160
 -0.90000    1.85     1.85   4.13090
 -0.85000    1.85     1.85   4.13400
 -0.80000    1.85     1.85   4.12270
 -0.75000    1.85     1.85   4.11920
 -0.70000    1.85     1.85   4.11330
 -0.65000    1.85     1.85   4.11280
 -0.60000    1.85     1.85   4.10920
 -0.55000    1.85     1.85   4.11300
 -0.50000    1.85     1.85   4.10960
 -0.45000    1.85     1.85   4.11850
 -0.40000    1.85     1.85   4.12080
 -0.35000    1.85     1.85   4.11870
 -0.30000    1.85     1.85   4.12170
 -0.25000    1.85     1.85   4.11990
 -0.20000    1.85     1.85   4.12490
 -0.15000    1.85     1.85   4.12600
 -0.10000    1.85     1.85   4.12010
 -0.05000    1.85     1.85   4.12170
 0.00000    1.85     1.85   4.11600
 0.05000    1.85     1.85   4.11460
 0.10000    1.85     1.85   4.11540
 0.15000    1.85     1.85   4.11100
 0.20000    1.85     1.85   4.10520
 0.25000    1.85     1.85   4.10970
 0.30000    1.85     1.85   4.10700
 0.35000    1.85     1.85   4.10210
 0.40000    1.85     1.85   4.09850
 0.45000    1.85     1.85   4.09110
 0.50000    1.85     1.85   4.08910
 0.55000    1.85     1.85   4.08490
 0.60000    1.85     1.85   4.07850
 0.65000    1.85     1.85   4.08220
 0.70000    1.85     1.85   4.08190
 0.75000    1.85     1.85   4.07970
 0.80000    1.85     1.85   4.07410
 0.85000    1.85     1.85   4.07100
 0.90000    1.85     1.85   4.06240
 0.95000    1.85     1.85   4.06400
 1.00000    1.85     1.85   4.06540
 1.05000    1.85     1.85   4.06130
 1.10000    1.85     1.85   4.06350
 1.15000    1.85     1.85   4.06680
 1.20000    1.85     1.85   4.05680
 1.25000    1.85     1.85   4.06500
 1.30000    1.85     1.85   4.04980
 1.35000    1.85     1.85   4.04710
 1.40000    1.85     1.85   4.04970
 1.45000    1.85     1.85   4.05720
 1.50000    1.85     1.85   4.04570
 1.55000    1.85     1.85   4.04370
 1.60000    1.85     1.85   4.04530
 1.65000    1.85     1.85   4.04110
 1.70000    1.85     1.85   4.03680
 1.75000    1.85     1.85   4.03580
 1.80000    1.85     1.85   4.03850
 1.85000    1.85     1.85   4.03370
 1.90000    1.85     1.85   4.03660
 1.95000    1.85     1.85   4.03760
 2.00000    1.85     1.85   4.03080
 2.05000    1.85     1.85   4.03380
 2.10000    1.85     1.85   4.03520
 2.15000    1.85     1.85   4.04520
 2.20000    1.85     1.85   4.04740
 2.25000    1.85     1.85   4.03810
 2.30000    1.85     1.85   4.03180
 2.35000    1.85     1.85   4.03320
 2.40000    1.85     1.85   4.03490
 2.45000    1.85     1.85   4.02600
 2.50000    1.85     1.85   4.03300
 2.55000    1.85     1.85   4.03030
 2.60000    1.85     1.85   4.02700
 2.65000    1.85     1.85   4.02000
 2.70000    1.85     1.85   4.02110
 2.75000    1.85     1.85   4.02760
 2.80000    1.85     1.85   4.01570
 2.85000    1.85     1.85   4.01940
 2.90000    1.85     1.85   4.01710
 2.95000    1.85     1.85   4.01710
 3.00000    1.85     1.85   4.01360
 3.05000    1.85     1.85   4.00490
 3.10000    1.85     1.85   4.00860
 3.15000    1.85     1.85   4.00720
 3.20000    1.85     1.85   4.00780
 3.25000    1.85     1.85   4.00200
 3.30000    1.85     1.85   4.00190
 3.35000    1.85     1.85   4.00350
 3.40000    1.85     1.85   4.00240
 3.45000    1.85     1.85   3.99620
 3.50000    1.85     1.85   3.99490
 3.55000    1.85     1.85   3.99470
 3.60000    1.85     1.85   3.99250
 3.65000    1.85     1.85   3.98790
 3.70000    1.85     1.85   3.98330
 3.75000    1.85     1.85   3.98030
 3.80000    1.85     1.85   3.97460
 3.85000    1.85     1.85   3.97810
 3.90000    1.85     1.85   3.96070
 3.95000    1.85     1.85   3.96340
 4.00000    1.85     1.85   3.95370
 4.05000    1.85     1.85   3.94400
 4.10000    1.85     1.85   3.94330
 4.15000    1.85     1.85   3.93630
 4.20000    1.85     1.85   3.92660
 4.25000    1.85     1.85   3.93060
 4.30000    1.85     1.85   3.92870
 4.35000    1.85     1.85   3.93400
 4.40000    1.85     1.85   3.93310
 4.45000    1.85     1.85   3.92380
 4.50000    1.85     1.85   3.92620
 4.55000    1.85     1.85   3.93360
 4.60000    1.85     1.85   3.93040
 4.65000    1.85     1.85   3.92380
 4.70000    1.85     1.85   3.92290
 4.75000    1.85     1.85   3.92410
 4.80000    1.85     1.85   3.91910
 4.85000    1.85     1.85   3.91800
 4.90000    1.85     1.85   3.91210
 4.95000    1.85     1.85   3.90760
 5.00000    1.85     1.85   3.90640
 5.05000    1.85     1.85   3.90700
 5.10000    1.85     1.85   3.90680
 5.15000    1.85     1.85   3.90170
 5.20000    1.85     1.85   3.90230
 5.25000    1.85     1.85   3.89420
 5.30000    1.85     1.85   3.88870
 5.35000    1.85     1.85   3.88670
 5.40000    1.85     1.85   3.88220
 5.45000    1.85     1.85   3.87730
 5.50000    1.85     1.85   3.87320
 5.55000    1.85     1.85   3.87170
 5.60000    1.85     1.85   3.87810
 5.65000    1.85     1.85   3.87440
 5.70000    1.85     1.85   3.86770
 5.75000    1.85     1.85   3.86800
 5.80000    1.85     1.85   3.87560
 5.85000    1.85     1.85   3.86550
 5.90000    1.85     1.85   3.86560
 5.95000    1.85     1.85   3.86490
 6.00000    1.85     1.85   3.86580
 6.05000    1.85     1.85   3.86760
 6.10000    1.85     1.85   3.86380
 6.15000    1.85     1.85   3.86080
 6.20000    1.85     1.85   3.86830
 6.25000    1.85     1.85   3.86670
 6.30000    1.85     1.85   3.86620
 6.35000    1.85     1.85   3.85990
 6.40000    1.85     1.85   3.85790
 6.45000    1.85     1.85   3.84680
 6.50000    1.85     1.85   3.84930
 6.55000    1.85     1.85   3.85080
 6.60000    1.85     1.85   3.84780
 6.65000    1.85     1.85   3.84310
 6.70000    1.85     1.85   3.84390
 6.75000    1.85     1.85   3.83590
 6.80000    1.85     1.85   3.83250
 6.85000    1.85     1.85   3.84450
 6.90000    1.85     1.85   3.84700
 6.95000    1.85     1.85   3.84710
 7.00000    1.85     1.85   3.84450
 7.00000    1.85     1.85   3.84090
 6.95000    1.85     1.85   3.85750
 6.90000    1.85     1.85   3.86830
 6.85000    1.85     1.85   3.87360
 6.80000    1.85     1.85   3.86760
 6.75000    1.85     1.85   3.87280
 6.70000    1.85     1.85   3.87930
 6.65000    1.85     1.85   3.87800
 6.60000    1.85     1.85   3.88280
 6.55000    1.85     1.85   3.89840
 6.50000    1.85     1.85   3.89630
 6.45000    1.85     1.85   3.89110
 6.40000    1.85     1.85   3.89460
 6.35000    1.85     1.85   3.89910
 6.30000    1.85     1.85   3.90730
 6.25000    1.85     1.85   3.90930
 6.20000    1.85     1.85   3.91360
 6.15000    1.85     1.85   3.92030
 6.10000    1.85     1.85   3.93420
 6.05000    1.85     1.85   3.94560
 6.00000    1.85     1.85   3.93880
 5.95000    1.85     1.85   3.94950
 5.90000    1.85     1.85   3.95120
 5.85000    1.85     1.85   3.95000
 5.80000    1.85     1.85   3.95240
 5.75000    1.85     1.85   3.95650
 5.70000    1.85     1.85   3.95960
 5.65000    1.85     1.85   3.96200
 5.60000    1.85     1.85   3.96600
 5.55000    1.85     1.85   3.96780
 5.50000    1.85     1.85   3.97200
 5.45000    1.85     1.85   3.96840
 5.40000    1.85     1.85   3.97380
 5.35000    1.85     1.85   3.97060
 5.30000    1.85     1.85   3.96990
 5.25000    1.85     1.85   3.97120
 5.20000    1.85     1.85   3.97780
 5.15000    1.85     1.85   3.98520
 5.10000    1.85     1.85   3.98690
 5.05000    1.85     1.85   3.98580
 5.00000    1.85     1.85   3.98600
 4.95000    1.85     1.85   3.99230
 4.90000    1.85     1.85   3.99000
 4.85000    1.85     1.85   4.00210
 4.80000    1.85     1.85   4.00040
 4.75000    1.85     1.85   4.00530
 4.70000    1.85     1.85   4.00640
 4.65000    1.85     1.85   4.00460
 4.60000    1.85     1.85   4.02810
 4.55000    1.85     1.85   4.01810
 4.50000    1.85     1.85   4.02330
 4.45000    1.85     1.85   4.02510
 4.40000    1.85     1.85   4.03530
 4.35000    1.85     1.85   4.04090
 4.30000    1.85     1.85   4.04610
 4.25000    1.85     1.85   4.05280
 4.20000    1.85     1.85   4.06400
 4.15000    1.85     1.85   4.06620
 4.10000    1.85     1.85   4.06610
 4.05000    1.85     1.85   4.06790
 4.00000    1.85     1.85   4.07020
 3.95000    1.85     1.85   4.07750
 3.90000    1.85     1.85   4.08740
 3.85000    1.85     1.85   4.09530
 3.80000    1.85     1.85   4.10110
 3.75000    1.85     1.85   4.10290
 3.70000    1.85     1.85   4.10750
 3.65000    1.85     1.85   4.11010
 3.60000    1.85     1.85   4.11410
 3.55000    1.85     1.85   4.12450
 3.50000    1.85     1.85   4.12580
 3.45000    1.85     1.85   4.12930
 3.40000    1.85     1.85   4.12780
 3.35000    1.85     1.85   4.13040
 3.30000    1.85     1.85   4.13250
 3.25000    1.85     1.85   4.13700
 3.20000    1.85     1.85   4.13940
 3.15000    1.85     1.85   4.13570
 3.10000    1.85     1.85   4.14520
 3.05000    1.85     1.85   4.14440
 3.00000    1.85     1.85   4.14930
 2.95000    1.85     1.85   4.15230
 2.90000    1.85     1.85   4.15090
 2.85000    1.85     1.85   4.15860
 2.80000    1.85     1.85   4.15780
 2.75000    1.85     1.85   4.15580
 2.70000    1.85     1.85   4.15960
 2.65000    1.85     1.85   4.16360
 2.60000    1.85     1.85   4.17700
 2.55000    1.85     1.85   4.17400
 2.50000    1.85     1.85   4.17640
 2.45000    1.85     1.85   4.18230
 2.40000    1.85     1.85   4.18360
 2.35000    1.85     1.85   4.19350
 2.30000    1.85     1.85   4.18580
 2.25000    1.85     1.85   4.19210
 2.20000    1.85     1.85   4.18610
 2.15000    1.85     1.85   4.18780
 2.10000    1.85     1.85   4.19160
 2.05000    1.85     1.85   4.18430
 2.00000    1.85     1.85   4.18850
 1.95000    1.85     1.85   4.20130
 1.90000    1.85     1.85   4.20270
 1.85000    1.85     1.85   4.21230
 1.80000    1.85     1.85   4.20240
 1.75000    1.85     1.85   4.19730
 1.70000    1.85     1.85   4.20520
 1.65000    1.85     1.85   4.19560
 1.60000    1.85     1.85   4.20270
 1.55000    1.85     1.85   4.20430
 1.50000    1.85     1.85   4.21540
 1.45000    1.85     1.85   4.21580
 1.40000    1.85     1.85   4.22120
 1.35000    1.85     1.85   4.22230
 1.30000    1.85     1.85   4.21490
 1.25000    1.85     1.85   4.22490
 1.20000    1.85     1.85   4.22510
 1.15000    1.85     1.85   4.22920
 1.10000    1.85     1.85   4.23210
 1.05000    1.85     1.85   4.23200
 1.00000    1.85     1.85   4.24100
 0.95000    1.85     1.85   4.24510
 0.90000    1.85     1.85   4.23810
 0.85000    1.85     1.85   4.23600
 0.80000    1.85     1.85   4.23960
 0.75000    1.85     1.85   4.23790
 0.70000    1.85     1.85   4.24200
 0.65000    1.85     1.85   4.23610
 0.60000    1.85     1.85   4.24000
 0.55000    1.85     1.85   4.24590
 0.50000    1.85     1.85   4.26030
 0.45000    1.85     1.85   4.25620
 0.40000    1.85     1.85   4.25720
 0.35000    1.85     1.85   4.25960
 0.30000    1.85     1.85   4.26010
 0.25000    1.85     1.85   4.26130
 0.20000    1.85     1.85   4.26790
 0.15000    1.85     1.85   4.26280
 0.10000    1.85     1.85   4.25780
 0.05000    1.85     1.85   4.26240
 0.00000    1.85     1.85   4.26620
