 Field[T] Tsmpl[K] Tcntr[K] Signal   Mirror[MM]
 0.00000    1.87     1.87   0.55753  3.6196
 -0.05000    1.87     1.87   0.55796  3.6200
 -0.10000    1.87     1.87   0.55721  3.6202
 -0.15000    1.87     1.87   0.55658  3.6205
 -0.20000    1.87     1.87   0.55788  3.6207
 -0.25000    1.87     1.87   0.55871  3.6208
 -0.30000    1.87     1.87   0.55850  3.6208
 -0.35000    1.87     1.87   0.55901  3.6209
 -0.40000    1.87     1.87   0.56002  3.6212
 -0.45000    1.87     1.87   0.56093  3.6214
 -0.50000    1.87     1.87   0.56011  3.6217
 -0.55000    1.87     1.87   0.55975  3.6216
 -0.60000    1.87     1.87   0.55999  3.6219
 -0.65000    1.87     1.87   0.56025  3.6219
 -0.70000    1.87     1.87   0.56021  3.6220
 -0.75000    1.87     1.87   0.56078  3.6219
 -0.80000    1.87     1.87   0.56186  3.6219
 -0.85000    1.87     1.87   0.56218  3.6220
 -0.90000    1.87     1.87   0.56096  3.6219
 -0.95000    1.87     1.87   0.56022  3.6219
 -1.00000    1.87     1.87   0.56020  3.6219
 -1.05000    1.87     1.87   0.56032  3.6220
 -1.10000    1.87     1.87   0.56081  3.6220
 -1.15000    1.87     1.87   0.56092  3.6221
 -1.20000    1.87     1.87   0.56214  3.6221
 -1.25000    1.87     1.87   0.56184  3.6219
 -1.30000    1.87     1.87   0.56190  3.6220
 -1.35000    1.87     1.87   0.56194  3.6223
 -1.40000    1.87     1.87   0.56215  3.6221
 -1.45000    1.87     1.87   0.56207  3.6222
 -1.50000    1.87     1.87   0.56247  3.6225
 -1.55000    1.87     1.87   0.56186  3.6227
 -1.60000    1.87     1.87   0.56024  3.6226
 -1.65000    1.87     1.87   0.55950  3.6226
 -1.70000    1.87     1.87   0.55884  3.6228
 -1.75000    1.87     1.87   0.55879  3.6226
 -1.80000    1.87     1.87   0.55820  3.6225
 -1.85000    1.87     1.87   0.55757  3.6225
 -1.90000    1.87     1.87   0.55769  3.6224
 -1.95000    1.87     1.87   0.55723  3.6225
 -2.00000    1.87     1.87   0.55738  3.6223
 -2.05000    1.87     1.87   0.55708  3.6223
 -2.10000    1.87     1.87   0.55748  3.6221
 -2.15000    1.87     1.87   0.55858  3.6220
 -2.20000    1.87     1.87   0.55936  3.6221
 -2.25000    1.87     1.87   0.56000  3.6222
 -2.30000    1.87     1.87   0.55906  3.6222
 -2.35000    1.87     1.87   0.55842  3.6222
 -2.40000    1.87     1.87   0.55801  3.6223
 -2.45000    1.87     1.87   0.55844  3.6223
 -2.50000    1.87     1.87   0.55874  3.6223
 -2.55000    1.87     1.87   0.55880  3.6223
 -2.60000    1.87     1.87   0.55922  3.6221
 -2.65000    1.87     1.87   0.55963  3.6221
 -2.70000    1.87     1.87   0.55870  3.6220
 -2.75000    1.87     1.87   0.55825  3.6221
 -2.80000    1.87     1.87   0.55736  3.6221
 -2.85000    1.87     1.87   0.55665  3.6221
 -2.90000    1.87     1.87   0.55700  3.6222
 -2.95000    1.87     1.87   0.55684  3.6222
 -3.00000    1.87     1.87   0.55665  3.6222
 -3.05000    1.87     1.87   0.55692  3.6222
 -3.10000    1.87     1.87   0.55727  3.6222
 -3.15000    1.87     1.87   0.55848  3.6221
 -3.20000    1.87     1.87   0.55746  3.6221
 -3.25000    1.87     1.87   0.55700  3.6221
 -3.30000    1.87     1.87   0.55655  3.6220
 -3.35000    1.87     1.87   0.55624  3.6220
 -3.40000    1.87     1.87   0.55632  3.6219
 -3.45000    1.87     1.87   0.55602  3.6220
 -3.50000    1.87     1.87   0.55658  3.6221
 -3.55000    1.87     1.87   0.55730  3.6221
 -3.60000    1.87     1.87   0.55636  3.6221
 -3.65000    1.87     1.87   0.55604  3.6221
 -3.70000    1.87     1.87   0.55602  3.6222
 -3.75000    1.87     1.87   0.55654  3.6219
 -3.80000    1.87     1.87   0.55585  3.6221
 -3.85000    1.87     1.87   0.55578  3.6220
 -3.90000    1.87     1.87   0.55582  3.6221
 -3.95000    1.87     1.87   0.55619  3.6220
 -4.00000    1.87     1.87   0.55662  3.6219
 -4.05000    1.87     1.87   0.55678  3.6220
 -4.10000    1.87     1.87   0.55730  3.6220
 -4.15000    1.87     1.87   0.55683  3.6220
 -4.20000    1.87     1.87   0.55659  3.6220
 -4.25000    1.87     1.87   0.55681  3.6220
 -4.30000    1.87     1.87   0.55719  3.6220
 -4.35000    1.87     1.87   0.55638  3.6219
 -4.40000    1.87     1.87   0.55581  3.6221
 -4.45000    1.87     1.87   0.55522  3.6220
 -4.50000    1.87     1.87   0.55480  3.6221
 -4.55000    1.87     1.87   0.55584  3.6220
 -4.60000    1.87     1.87   0.55534  3.6220
 -4.65000    1.87     1.87   0.55515  3.6219
 -4.70000    1.87     1.87   0.55478  3.6220
 -4.75000    1.87     1.87   0.55497  3.6221
 -4.80000    1.87     1.87   0.55555  3.6220
 -4.85000    1.87     1.87   0.55579  3.6220
 -4.90000    1.87     1.87   0.55605  3.6221
 -4.95000    1.87     1.87   0.55650  3.6221
 -5.00000    1.87     1.87   0.55708  3.6222
 -5.05000    1.87     1.87   0.55625  3.6221
 -5.10000    1.87     1.87   0.55522  3.6223
 -5.15000    1.87     1.87   0.55493  3.6221
 -5.20000    1.87     1.87   0.55469  3.6220
 -5.25000    1.87     1.87   0.55462  3.6223
 -5.30000    1.87     1.87   0.55492  3.6224
 -5.35000    1.87     1.87   0.55546  3.6222
 -5.40000    1.87     1.87   0.55560  3.6224
 -5.45000    1.87     1.87   0.55526  3.6223
 -5.50000    1.87     1.87   0.55464  3.6222
 -5.55000    1.87     1.87   0.55500  3.6221
 -5.60000    1.87     1.87   0.55517  3.6222
 -5.65000    1.87     1.87   0.55604  3.6220
 -5.70000    1.87     1.87   0.55580  3.6222
 -5.75000    1.87     1.87   0.55517  3.6224
 -5.80000    1.87     1.87   0.55491  3.6223
 -5.85000    1.87     1.87   0.55491  3.6223
 -5.90000    1.87     1.87   0.55484  3.6223
 -5.95000    1.87     1.87   0.55484  3.6223
 -6.00000    1.87     1.87   0.55502  3.6223
 -6.05000    1.87     1.87   0.55501  3.6222
 -6.10000    1.87     1.87   0.55489  3.6222
 -6.15000    1.87     1.87   0.55509  3.6223
 -6.20000    1.87     1.87   0.55445  3.6223
 -6.25000    1.87     1.87   0.55426  3.6222
 -6.30000    1.87     1.87   0.55346  3.6225
 -6.35000    1.87     1.87   0.55377  3.6224
 -6.40000    1.87     1.87   0.55356  3.6225
 -6.45000    1.87     1.87   0.55376  3.6224
 -6.50000    1.87     1.87   0.55351  3.6225
 -6.55000    1.87     1.87   0.55312  3.6224
 -6.60000    1.87     1.87   0.55416  3.6222
 -6.65000    1.87     1.87   0.55408  3.6225
 -6.70000    1.87     1.87   0.55417  3.6222
 -6.75000    1.87     1.87   0.55391  3.6223
 -6.80000    1.87     1.87   0.55364  3.6223
 -6.85000    1.87     1.87   0.55351  3.6225
 -6.90000    1.87     1.87   0.55339  3.6223
 -6.95000    1.87     1.87   0.55285  3.6224
 -7.00000    1.87     1.87   0.55300  3.6225
 -7.00000    1.87     1.87   0.55334  3.6224
 -6.95000    1.87     1.87   0.55338  3.6224
 -6.90000    1.87     1.87   0.55437  3.6224
 -6.85000    1.87     1.87   0.55474  3.6225
 -6.80000    1.87     1.87   0.55492  3.6226
 -6.75000    1.87     1.87   0.55530  3.6225
 -6.70000    1.87     1.87   0.55519  3.6224
 -6.65000    1.87     1.87   0.55477  3.6226
 -6.60000    1.87     1.87   0.55448  3.6226
 -6.55000    1.87     1.87   0.55448  3.6226
 -6.50000    1.87     1.87   0.55481  3.6226
 -6.45000    1.87     1.87   0.55436  3.6225
 -6.40000    1.87     1.87   0.55449  3.6227
 -6.35000    1.87     1.87   0.55536  3.6228
 -6.30000    1.87     1.87   0.55550  3.6227
 -6.25000    1.87     1.87   0.55598  3.6225
 -6.20000    1.87     1.87   0.55608  3.6226
 -6.15000    1.87     1.87   0.55593  3.6226
 -6.10000    1.87     1.87   0.55579  3.6226
 -6.05000    1.87     1.87   0.55554  3.6228
 -6.00000    1.87     1.87   0.55616  3.6225
 -5.95000    1.87     1.87   0.55620  3.6226
 -5.90000    1.87     1.87   0.55621  3.6227
 -5.85000    1.87     1.87   0.55630  3.6227
 -5.80000    1.87     1.87   0.55644  3.6227
 -5.75000    1.87     1.87   0.55717  3.6229
 -5.70000    1.87     1.87   0.55742  3.6228
 -5.65000    1.87     1.87   0.55759  3.6229
 -5.60000    1.87     1.87   0.55771  3.6227
 -5.55000    1.87     1.87   0.55800  3.6227
 -5.50000    1.87     1.87   0.55783  3.6228
 -5.45000    1.87     1.87   0.55789  3.6228
 -5.40000    1.87     1.87   0.55788  3.6229
 -5.35000    1.87     1.87   0.55797  3.6228
 -5.30000    1.87     1.87   0.55847  3.6230
 -5.25000    1.87     1.87   0.55903  3.6227
 -5.20000    1.87     1.87   0.55934  3.6228
 -5.15000    1.87     1.87   0.55878  3.6229
 -5.10000    1.87     1.87   0.55863  3.6229
 -5.05000    1.87     1.87   0.55796  3.6228
 -5.00000    1.87     1.87   0.55882  3.6227
 -4.95000    1.87     1.87   0.55869  3.6228
 -4.90000    1.87     1.87   0.55885  3.6232
 -4.85000    1.87     1.87   0.55937  3.6230
 -4.80000    1.87     1.87   0.55912  3.6229
 -4.75000    1.87     1.87   0.55881  3.6228
 -4.70000    1.87     1.87   0.55895  3.6228
 -4.65000    1.87     1.87   0.55895  3.6229
 -4.60000    1.87     1.87   0.55894  3.6230
 -4.55000    1.87     1.87   0.55945  3.6230
 -4.50000    1.87     1.87   0.55962  3.6229
 -4.45000    1.87     1.87   0.55965  3.6229
 -4.40000    1.87     1.87   0.55989  3.6232
 -4.35000    1.87     1.87   0.56007  3.6231
 -4.30000    1.87     1.87   0.55990  3.6231
 -4.25000    1.87     1.87   0.56095  3.6231
 -4.20000    1.87     1.87   0.56033  3.6231
 -4.15000    1.87     1.87   0.56025  3.6231
 -4.10000    1.87     1.87   0.56018  3.6233
 -4.05000    1.87     1.87   0.55994  3.6231
 -4.00000    1.87     1.87   0.56066  3.6231
 -3.95000    1.87     1.87   0.56139  3.6229
 -3.90000    1.87     1.87   0.56060  3.6231
 -3.85000    1.87     1.87   0.56118  3.6232
 -3.80000    1.87     1.87   0.56121  3.6231
 -3.75000    1.87     1.87   0.56127  3.6232
 -3.70000    1.87     1.87   0.56077  3.6230
 -3.65000    1.87     1.87   0.56105  3.6230
 -3.60000    1.87     1.87   0.56052  3.6231
 -3.55000    1.87     1.87   0.56078  3.6230
 -3.50000    1.87     1.87   0.56116  3.6232
 -3.45000    1.87     1.87   0.56158  3.6233
 -3.40000    1.87     1.87   0.56248  3.6232
 -3.35000    1.87     1.87   0.56219  3.6232
 -3.30000    1.87     1.87   0.56215  3.6233
 -3.25000    1.87     1.87   0.56188  3.6232
 -3.20000    1.87     1.87   0.56218  3.6234
 -3.15000    1.87     1.87   0.56210  3.6235
 -3.10000    1.87     1.87   0.56280  3.6234
 -3.05000    1.87     1.87   0.56286  3.6233
 -3.00000    1.87     1.87   0.56245  3.6234
 -2.95000    1.87     1.87   0.56274  3.6235
 -2.90000    1.87     1.87   0.56284  3.6237
 -2.85000    1.87     1.87   0.56321  3.6237
 -2.80000    1.87     1.87   0.56318  3.6236
 -2.75000    1.87     1.87   0.56354  3.6235
 -2.70000    1.87     1.87   0.56450  3.6234
 -2.65000    1.87     1.87   0.56420  3.6234
 -2.60000    1.87     1.87   0.56461  3.6234
 -2.55000    1.87     1.87   0.56425  3.6236
 -2.50000    1.87     1.87   0.56354  3.6237
 -2.45000    1.87     1.87   0.56344  3.6237
 -2.40000    1.87     1.87   0.56359  3.6236
 -2.35000    1.87     1.87   0.56331  3.6236
 -2.30000    1.87     1.87   0.56395  3.6237
 -2.25000    1.87     1.87   0.56390  3.6236
 -2.20000    1.87     1.87   0.56365  3.6236
 -2.15000    1.87     1.87   0.56307  3.6238
 -2.10000    1.87     1.87   0.56318  3.6237
 -2.05000    1.87     1.87   0.56248  3.6238
 -2.00000    1.87     1.87   0.56290  3.6239
 -1.95000    1.87     1.87   0.56302  3.6239
 -1.90000    1.87     1.87   0.56348  3.6241
 -1.85000    1.87     1.87   0.56332  3.6244
 -1.80000    1.87     1.87   0.56469  3.6242
 -1.75000    1.87     1.87   0.56516  3.6244
 -1.70000    1.87     1.87   0.56615  3.6244
 -1.65000    1.87     1.87   0.56625  3.6245
 -1.60000    1.87     1.87   0.56688  3.6246
 -1.55000    1.87     1.87   0.56787  3.6243
 -1.50000    1.87     1.87   0.56861  3.6245
 -1.45000    1.87     1.87   0.56858  3.6241
 -1.40000    1.87     1.87   0.56813  3.6243
 -1.35000    1.87     1.87   0.56796  3.6241
 -1.30000    1.87     1.87   0.56770  3.6241
 -1.25000    1.87     1.87   0.56803  3.6239
 -1.20000    1.87     1.87   0.56863  3.6237
 -1.15000    1.87     1.87   0.56772  3.6240
 -1.10000    1.87     1.87   0.56789  3.6239
 -1.05000    1.87     1.87   0.56806  3.6239
 -1.00000    1.87     1.87   0.56815  3.6240
 -0.95000    1.87     1.87   0.56871  3.6240
 -0.90000    1.87     1.87   0.56770  3.6241
 -0.85000    1.87     1.87   0.56742  3.6241
 -0.80000    1.87     1.87   0.56708  3.6240
 -0.75000    1.87     1.87   0.56691  3.6239
 -0.70000    1.87     1.87   0.56721  3.6240
 -0.65000    1.87     1.87   0.56711  3.6236
 -0.60000    1.87     1.87   0.56759  3.6237
 -0.55000    1.87     1.87   0.56732  3.6236
 -0.50000    1.87     1.87   0.56683  3.6237
 -0.45000    1.87     1.87   0.56650  3.6236
 -0.40000    1.87     1.87   0.56579  3.6234
 -0.35000    1.87     1.87   0.56548  3.6234
 -0.30000    1.87     1.87   0.56474  3.6231
 -0.25000    1.87     1.87   0.56393  3.6230
 -0.20000    1.87     1.87   0.56332  3.6227
 -0.15000    1.87     1.87   0.56259  3.6224
 -0.10000    1.87     1.87   0.56169  3.6224
 -0.05000    1.87     1.87   0.56123  3.6222
 0.00000    1.87     1.87   0.56036  3.6218
 0.05000    1.87     1.87   0.55947  3.6217
 0.10000    1.87     1.87   0.55898  3.6216
 0.15000    1.87     1.87   0.55848  3.6214
 0.20000    1.87     1.87   0.55763  3.6210
 0.25000    1.87     1.87   0.55684  3.6208
 0.30000    1.87     1.87   0.55600  3.6207
 0.35000    1.87     1.87   0.55543  3.6205
 0.40000    1.87     1.87   0.55502  3.6204
 0.45000    1.87     1.87   0.55537  3.6201
 0.50000    1.87     1.87   0.55499  3.6203
 0.55000    1.87     1.87   0.55438  3.6200
 0.60000    1.87     1.87   0.55520  3.6199
 0.65000    1.87     1.87   0.55428  3.6201
 0.70000    1.87     1.87   0.55401  3.6198
 0.75000    1.87     1.87   0.55378  3.6197
 0.80000    1.87     1.87   0.55357  3.6197
 0.85000    1.87     1.87   0.55374  3.6196
 0.90000    1.87     1.87   0.55373  3.6195
 0.95000    1.87     1.87   0.55399  3.6196
 1.00000    1.87     1.87   0.55433  3.6196
 1.05000    1.87     1.87   0.55459  3.6195
 1.10000    1.87     1.87   0.55350  3.6195
 1.15000    1.87     1.87   0.55360  3.6195
 1.20000    1.87     1.87   0.55314  3.6197
 1.25000    1.87     1.87   0.55350  3.6196
 1.30000    1.87     1.87   0.55381  3.6196
 1.35000    1.87     1.87   0.55391  3.6197
 1.40000    1.87     1.87   0.55473  3.6196
 1.45000    1.87     1.87   0.55418  3.6198
 1.50000    1.87     1.87   0.55399  3.6199
 1.55000    1.87     1.87   0.55345  3.6201
 1.60000    1.87     1.87   0.55254  3.6201
 1.65000    1.87     1.87   0.55183  3.6201
 1.70000    1.87     1.87   0.55138  3.6200
 1.75000    1.87     1.87   0.55162  3.6199
 1.80000    1.87     1.87   0.55134  3.6196
 1.85000    1.87     1.87   0.55077  3.6195
 1.90000    1.87     1.87   0.55129  3.6193
 1.95000    1.87     1.87   0.55104  3.6192
 2.00000    1.87     1.87   0.55126  3.6190
 2.05000    1.87     1.87   0.55144  3.6190
 2.10000    1.87     1.87   0.55152  3.6190
 2.15000    1.87     1.87   0.55132  3.6190
 2.20000    1.87     1.87   0.55195  3.6188
 2.25000    1.87     1.87   0.55217  3.6190
 2.30000    1.87     1.87   0.55243  3.6191
 2.35000    1.87     1.87   0.55372  3.6190
 2.40000    1.87     1.87   0.55422  3.6191
 2.45000    1.87     1.87   0.55445  3.6191
 2.50000    1.87     1.87   0.55327  3.6193
 2.55000    1.87     1.87   0.55364  3.6191
 2.60000    1.87     1.87   0.55423  3.6190
 2.65000    1.87     1.87   0.55417  3.6193
 2.70000    1.87     1.87   0.55430  3.6194
 2.75000    1.87     1.87   0.55528  3.6192
 2.80000    1.87     1.87   0.55527  3.6192
 2.85000    1.87     1.87   0.55511  3.6192
 2.90000    1.87     1.87   0.55518  3.6192
 2.95000    1.87     1.87   0.55468  3.6191
 3.00000    1.87     1.87   0.55472  3.6192
 3.05000    1.87     1.87   0.55509  3.6195
 3.10000    1.87     1.87   0.55470  3.6195
 3.15000    1.87     1.87   0.55483  3.6194
 3.20000    1.87     1.87   0.55421  3.6193
 3.25000    1.87     1.87   0.55438  3.6193
 3.30000    1.87     1.87   0.55468  3.6192
 3.35000    1.87     1.87   0.55498  3.6191
 3.40000    1.87     1.87   0.55479  3.6192
 3.45000    1.87     1.87   0.55472  3.6193
 3.50000    1.87     1.87   0.55493  3.6194
 3.55000    1.87     1.87   0.55591  3.6195
 3.60000    1.87     1.87   0.55671  3.6193
 3.65000    1.87     1.87   0.55686  3.6191
 3.70000    1.87     1.87   0.55633  3.6192
 3.75000    1.87     1.87   0.55645  3.6191
 3.80000    1.87     1.87   0.55646  3.6193
 3.85000    1.87     1.87   0.55692  3.6193
 3.90000    1.87     1.87   0.55776  3.6192
 3.95000    1.87     1.87   0.55756  3.6191
 4.00000    1.87     1.87   0.55721  3.6193
 4.05000    1.87     1.87   0.55731  3.6193
 4.10000    1.87     1.87   0.55718  3.6193
 4.15000    1.87     1.87   0.55762  3.6193
 4.20000    1.87     1.87   0.55821  3.6194
 4.25000    1.87     1.87   0.55871  3.6194
 4.30000    1.87     1.87   0.55827  3.6194
 4.35000    1.87     1.87   0.55856  3.6194
 4.40000    1.87     1.87   0.55838  3.6193
 4.45000    1.87     1.87   0.55865  3.6193
 4.50000    1.87     1.87   0.53981  3.6179
 4.55000    1.87     1.87   0.55923  3.6194
 4.60000    1.87     1.87   0.55923  3.6194
 4.65000    1.87     1.87   0.55949  3.6194
 4.70000    1.87     1.87   0.55975  3.6194
 4.75000    1.87     1.87   0.55973  3.6195
 4.80000    1.87     1.87   0.55982  3.6196
 4.85000    1.87     1.87   0.56056  3.6196
 4.90000    1.87     1.87   0.56030  3.6196
 4.95000    1.87     1.87   0.56014  3.6197
 5.00000    1.87     1.87   0.56038  3.6195
 5.05000    1.87     1.87   0.56021  3.6196
 5.10000    1.87     1.87   0.56068  3.6194
 5.15000    1.87     1.87   0.56046  3.6195
 5.20000    1.87     1.87   0.56033  3.6194
 5.25000    1.87     1.87   0.56069  3.6195
 5.30000    1.87     1.87   0.56129  3.6195
 5.35000    1.87     1.87   0.56160  3.6194
 5.40000    1.87     1.87   0.56165  3.6196
 5.45000    1.87     1.87   0.56138  3.6196
 5.50000    1.87     1.87   0.56154  3.6196
 5.55000    1.87     1.87   0.56159  3.6195
 5.60000    1.87     1.87   0.56171  3.6197
 5.65000    1.87     1.87   0.56231  3.6198
 5.70000    1.87     1.87   0.56213  3.6197
 5.75000    1.87     1.87   0.56180  3.6197
 5.80000    1.87     1.87   0.56156  3.6197
 5.85000    1.87     1.87   0.56190  3.6197
 5.90000    1.87     1.87   0.56196  3.6199
 5.95000    1.87     1.87   0.56104  3.6201
 6.00000    1.87     1.87   0.56175  3.6197
 6.05000    1.87     1.87   0.56137  3.6199
 6.10000    1.87     1.87   0.56133  3.6198
 6.15000    1.87     1.87   0.56176  3.6200
 6.20000    1.87     1.87   0.56227  3.6199
 6.25000    1.87     1.87   0.56285  3.6200
 6.30000    1.87     1.87   0.56329  3.6198
 6.35000    1.87     1.87   0.56363  3.6200
 6.40000    1.87     1.87   0.56335  3.6202
 6.45000    1.87     1.87   0.56454  3.6199
 6.50000    1.87     1.87   0.56466  3.6198
 6.55000    1.87     1.87   0.56479  3.6199
 6.60000    1.87     1.87   0.56432  3.6202
 6.65000    1.87     1.87   0.56484  3.6200
 6.70000    1.87     1.87   0.56497  3.6200
 6.75000    1.87     1.87   0.56426  3.6201
 6.80000    1.87     1.87   0.56406  3.6199
 6.85000    1.87     1.87   0.56409  3.6201
 6.90000    1.87     1.87   0.56383  3.6201
 6.95000    1.87     1.87   0.56326  3.6202
 7.00000    1.87     1.87   0.56290  3.6205
 7.00000    1.87     1.87   0.56332  3.6205
 6.95000    1.87     1.87   0.56308  3.6204
 6.90000    1.87     1.87   0.56296  3.6202
 6.85000    1.87     1.87   0.56327  3.6202
 6.80000    1.87     1.87   0.56349  3.6203
 6.75000    1.87     1.87   0.56412  3.6202
 6.70000    1.87     1.87   0.56387  3.6201
 6.65000    1.87     1.87   0.56320  3.6202
 6.60000    1.87     1.87   0.56228  3.6203
 6.55000    1.87     1.87   0.56228  3.6203
 6.50000    1.87     1.87   0.56225  3.6204
 6.45000    1.87     1.87   0.56203  3.6202
 6.40000    1.87     1.87   0.56251  3.6201
 6.35000    1.87     1.87   0.56253  3.6200
 6.30000    1.87     1.87   0.56207  3.6203
 6.25000    1.87     1.87   0.56175  3.6201
 6.20000    1.87     1.87   0.56038  3.6204
 6.15000    1.87     1.87   0.56065  3.6202
 6.10000    1.87     1.87   0.55963  3.6204
 6.05000    1.87     1.87   0.55988  3.6203
 6.00000    1.87     1.87   0.56012  3.6201
 5.95000    1.87     1.87   0.56033  3.6202
 5.90000    1.87     1.87   0.56034  3.6202
 5.85000    1.87     1.87   0.56132  3.6202
 5.80000    1.87     1.87   0.56132  3.6203
 5.75000    1.87     1.87   0.56082  3.6204
 5.70000    1.87     1.87   0.56028  3.6204
 5.65000    1.87     1.87   0.56019  3.6203
 5.60000    1.87     1.87   0.55977  3.6203
 5.55000    1.87     1.87   0.55964  3.6205
 5.50000    1.87     1.87   0.55952  3.6203
 5.45000    1.87     1.87   0.55945  3.6203
 5.40000    1.87     1.87   0.55940  3.6203
 5.35000    1.87     1.87   0.55976  3.6203
 5.30000    1.87     1.87   0.55965  3.6204
 5.25000    1.87     1.87   0.55968  3.6204
 5.20000    1.87     1.87   0.55956  3.6202
 5.15000    1.87     1.87   0.55910  3.6204
 5.10000    1.87     1.87   0.55982  3.6204
 5.05000    1.87     1.87   0.55883  3.6204
 5.00000    1.87     1.87   0.55841  3.6203
 4.95000    1.87     1.87   0.55867  3.6201
 4.90000    1.87     1.87   0.55839  3.6202
 4.85000    1.87     1.87   0.55799  3.6202
 4.80000    1.87     1.87   0.55726  3.6203
 4.75000    1.87     1.87   0.55712  3.6202
 4.70000    1.87     1.87   0.55703  3.6202
 4.65000    1.87     1.87   0.55710  3.6203
 4.60000    1.87     1.87   0.55724  3.6203
 4.55000    1.87     1.87   0.55679  3.6202
 4.50000    1.87     1.87   0.55652  3.6203
 4.45000    1.87     1.87   0.55641  3.6201
 4.40000    1.87     1.87   0.55555  3.6202
 4.35000    1.87     1.87   0.55601  3.6202
 4.30000    1.87     1.87   0.55596  3.6201
 4.25000    1.87     1.87   0.55613  3.6203
 4.20000    1.87     1.87   0.55604  3.6204
 4.15000    1.87     1.87   0.55622  3.6202
 4.10000    1.87     1.87   0.55596  3.6202
 4.05000    1.87     1.87   0.55462  3.6204
 4.00000    1.87     1.87   0.55520  3.6201
 3.95000    1.87     1.87   0.55507  3.6202
 3.90000    1.87     1.87   0.55477  3.6204
 3.85000    1.87     1.87   0.55497  3.6202
 3.80000    1.87     1.87   0.55461  3.6204
 3.75000    1.87     1.87   0.55441  3.6203
 3.70000    1.87     1.87   0.55417  3.6202
 3.65000    1.87     1.87   0.55487  3.6202
 3.60000    1.87     1.87   0.55501  3.6202
 3.55000    1.87     1.87   0.55432  3.6203
 3.50000    1.87     1.87   0.55373  3.6203
 3.45000    1.87     1.87   0.55307  3.6205
 3.40000    1.87     1.87   0.55329  3.6204
 3.35000    1.87     1.87   0.55314  3.6204
 3.30000    1.87     1.87   0.55268  3.6204
 3.25000    1.87     1.87   0.55286  3.6205
 3.20000    1.87     1.87   0.55351  3.6204
 3.15000    1.87     1.87   0.55361  3.6204
 3.10000    1.87     1.87   0.55356  3.6207
 3.05000    1.87     1.87   0.55340  3.6206
 3.00000    1.87     1.87   0.55258  3.6207
 2.95000    1.87     1.87   0.55190  3.6205
 2.90000    1.87     1.87   0.55206  3.6207
 2.85000    1.87     1.87   0.55213  3.6206
 2.80000    1.87     1.87   0.55209  3.6206
 2.75000    1.87     1.87   0.55220  3.6205
 2.70000    1.87     1.87   0.55247  3.6206
 2.65000    1.87     1.87   0.55246  3.6207
 2.60000    1.87     1.87   0.55253  3.6207
 2.55000    1.87     1.87   0.55241  3.6207
 2.50000    1.87     1.87   0.55170  3.6208
 2.45000    1.87     1.87   0.55137  3.6208
 2.40000    1.87     1.87   0.55061  3.6206
 2.35000    1.87     1.87   0.55005  3.6206
 2.30000    1.87     1.87   0.54978  3.6207
 2.25000    1.87     1.87   0.54981  3.6211
 2.20000    1.87     1.87   0.54951  3.6208
 2.15000    1.87     1.87   0.54918  3.6208
 2.10000    1.87     1.87   0.54942  3.6208
 2.05000    1.87     1.87   0.54882  3.6209
 2.00000    1.87     1.87   0.54841  3.6208
 1.95000    1.87     1.87   0.54805  3.6209
 1.90000    1.87     1.87   0.54812  3.6211
 1.85000    1.87     1.87   0.54835  3.6211
 1.80000    1.87     1.87   0.54897  3.6214
 1.75000    1.87     1.87   0.54883  3.6214
 1.70000    1.87     1.87   0.54837  3.6215
 1.65000    1.87     1.87   0.54856  3.6216
 1.60000    1.87     1.87   0.54945  3.6218
 1.55000    1.87     1.87   0.55106  3.6217
 1.50000    1.87     1.87   0.55163  3.6216
 1.45000    1.87     1.87   0.55216  3.6214
 1.40000    1.87     1.87   0.55244  3.6212
 1.35000    1.87     1.87   0.55151  3.6214
 1.30000    1.87     1.87   0.55109  3.6214
 1.25000    1.87     1.87   0.55184  3.6212
 1.20000    1.87     1.87   0.55176  3.6213
 1.15000    1.87     1.87   0.55099  3.6214
 1.10000    1.87     1.87   0.55109  3.6214
 1.05000    1.87     1.87   0.55076  3.6214
 1.00000    1.87     1.87   0.55050  3.6215
 0.95000    1.87     1.87   0.55026  3.6215
 0.90000    1.87     1.87   0.55062  3.6216
 0.85000    1.87     1.87   0.55137  3.6214
 0.80000    1.87     1.87   0.55131  3.6215
 0.75000    1.87     1.87   0.55160  3.6215
 0.70000    1.87     1.87   0.55224  3.6215
 0.65000    1.87     1.87   0.55224  3.6215
 0.60000    1.87     1.87   0.55232  3.6215
 0.55000    1.87     1.87   0.55257  3.6216
 0.50000    1.87     1.87   0.55263  3.6219
 0.45000    1.87     1.87   0.55302  3.6220
 0.40000    1.87     1.87   0.55348  3.6221
 0.35000    1.87     1.87   0.55431  3.6222
 0.30000    1.87     1.87   0.55436  3.6222
 0.25000    1.87     1.87   0.55468  3.6225
 0.20000    1.87     1.87   0.55550  3.6228
 0.15000    1.87     1.87   0.55532  3.6229
 0.10000    1.87     1.87   0.55558  3.6232
 0.05000    1.87     1.87   0.55604  3.6235
 0.00000    1.87     1.87   0.55738  3.6240
