 Field[T] Tsmpl[K] Tcntr[K] Signal   Mirror[MM]
 0.00000    1.89     1.89   0.77190  -9.7012
 -0.05000    1.89     1.89   0.77216  -9.7009
 -0.10000    1.89     1.89   0.77172  -9.7007
 -0.15000    1.89     1.89   0.77190  -9.7004
 -0.20000    1.89     1.89   0.77378  -9.7002
 -0.25000    1.89     1.89   0.77404  -9.7000
 -0.30000    1.89     1.89   0.77278  -9.7002
 -0.35000    1.89     1.89   0.77162  -9.7000
 -0.40000    1.89     1.89   0.77168  -9.7001
 -0.45000    1.89     1.89   0.77206  -9.7000
 -0.50000    1.89     1.89   0.77040  -9.6997
 -0.55000    1.89     1.89   0.77080  -9.6993
 -0.60000    1.89     1.89   0.76940  -9.6991
 -0.65000    1.89     1.89   0.76978  -9.6991
 -0.70000    1.89     1.89   0.76864  -9.6987
 -0.75000    1.89     1.89   0.76510  -9.6982
 -0.80000    1.89     1.89   0.75962  -9.6988
 -0.85000    1.89     1.89   0.75686  -9.6992
 -0.90000    1.89     1.89   0.75438  -9.6997
 -0.95000    1.89     1.89   0.75424  -9.7004
 -1.00000    1.89     1.89   0.75410  -9.7007
 -1.05000    1.89     1.89   0.75508  -9.7010
 -1.10000    1.89     1.89   0.75646  -9.7013
 -1.15000    1.89     1.89   0.75800  -9.7017
 -1.20000    1.89     1.89   0.75954  -9.7018
 -1.25000    1.89     1.89   0.76098  -9.7018
 -1.30000    1.89     1.89   0.76112  -9.7019
 -1.35000    1.89     1.89   0.76138  -9.7020
 -1.40000    1.89     1.89   0.76212  -9.7018
 -1.45000    1.89     1.89   0.76212  -9.7018
 -1.50000    1.89     1.89   0.76134  -9.7018
 -1.55000    1.89     1.89   0.76238  -9.7018
 -1.60000    1.89     1.89   0.76160  -9.7018
 -1.65000    1.89     1.89   0.76266  -9.7022
 -1.70000    1.89     1.89   0.76336  -9.7025
 -1.75000    1.89     1.89   0.76260  -9.7024
 -1.80000    1.89     1.89   0.76296  -9.7024
 -1.85000    1.89     1.89   0.76312  -9.7022
 -1.90000    1.89     1.89   0.76356  -9.7026
 -1.95000    1.89     1.89   0.76388  -9.7024
 -2.00000    1.89     1.89   0.76450  -9.7026
 -2.05000    1.89     1.89   0.76602  -9.7028
 -2.10000    1.89     1.89   0.76746  -9.7028
 -2.15000    1.89     1.89   0.76624  -9.7028
 -2.20000    1.89     1.89   0.76638  -9.7027
 -2.25000    1.89     1.89   0.76568  -9.7026
 -2.30000    1.89     1.89   0.76634  -9.7025
 -2.35000    1.89     1.89   0.76746  -9.7028
 -2.40000    1.89     1.89   0.76878  -9.7027
 -2.45000    1.89     1.89   0.76852  -9.7029
 -2.50000    1.89     1.89   0.76830  -9.7029
 -2.55000    1.89     1.89   0.76796  -9.7027
 -2.60000    1.89     1.89   0.76892  -9.7027
 -2.65000    1.89     1.89   0.76908  -9.7026
 -2.70000    1.89     1.89   0.77026  -9.7025
 -2.75000    1.89     1.89   0.77132  -9.7025
 -2.80000    1.89     1.89   0.76908  -9.7025
 -2.85000    1.89     1.89   0.76842  -9.7025
 -2.90000    1.89     1.89   0.76904  -9.7027
 -2.95000    1.89     1.89   0.76922  -9.7027
 -3.00000    1.89     1.89   0.76930  -9.7030
 -3.05000    1.89     1.89   0.77044  -9.7027
 -3.10000    1.89     1.89   0.77076  -9.7027
 -3.15000    1.89     1.89   0.77026  -9.7027
 -3.20000    1.89     1.89   0.77076  -9.7027
 -3.25000    1.89     1.89   0.77098  -9.7026
 -3.30000    1.89     1.89   0.76940  -9.7027
 -3.35000    1.89     1.89   0.76918  -9.7026
 -3.40000    1.89     1.89   0.77062  -9.7025
 -3.45000    1.89     1.89   0.77002  -9.7026
 -3.50000    1.89     1.89   0.76844  -9.7026
 -3.55000    1.89     1.89   0.76822  -9.7025
 -3.60000    1.89     1.89   0.76866  -9.7025
 -3.65000    1.89     1.89   0.76936  -9.7024
 -3.70000    1.89     1.89   0.76936  -9.7025
 -3.75000    1.89     1.89   0.76900  -9.7022
 -3.80000    1.89     1.89   0.76866  -9.7026
 -3.85000    1.89     1.89   0.76930  -9.7027
 -3.90000    1.89     1.89   0.76870  -9.7025
 -3.95000    1.89     1.89   0.76892  -9.7028
 -4.00000    1.89     1.89   0.76940  -9.7028
 -4.05000    1.89     1.89   0.77054  -9.7028
 -4.10000    1.89     1.89   0.77092  -9.7026
 -4.15000    1.89     1.89   0.77092  -9.7023
 -4.20000    1.89     1.89   0.77028  -9.7021
 -4.25000    1.89     1.89   0.77002  -9.7022
 -4.30000    1.89     1.89   0.76926  -9.7024
 -4.35000    1.89     1.89   0.76930  -9.7024
 -4.40000    1.89     1.89   0.76934  -9.7025
 -4.45000    1.89     1.89   0.76864  -9.7024
 -4.50000    1.89     1.89   0.76948  -9.7023
 -4.55000    1.89     1.89   0.76996  -9.7022
 -4.60000    1.89     1.89   0.77014  -9.7022
 -4.65000    1.89     1.89   0.77000  -9.7025
 -4.70000    1.89     1.89   0.76848  -9.7025
 -4.75000    1.89     1.89   0.76746  -9.7027
 -4.80000    1.89     1.89   0.76848  -9.7025
 -4.85000    1.89     1.89   0.76866  -9.7024
 -4.90000    1.89     1.89   0.76980  -9.7023
 -4.95000    1.89     1.89   0.76962  -9.7023
 -5.00000    1.89     1.89   0.76874  -9.7023
 -5.05000    1.89     1.89   0.76760  -9.7024
 -5.10000    1.89     1.89   0.76716  -9.7025
 -5.15000    1.89     1.89   0.76778  -9.7024
 -5.20000    1.89     1.89   0.76778  -9.7024
 -5.25000    1.89     1.89   0.76944  -9.7022
 -5.30000    1.89     1.89   0.77040  -9.7022
 -5.35000    1.89     1.89   0.76834  -9.7024
 -5.40000    1.89     1.89   0.76726  -9.7022
 -5.45000    1.89     1.89   0.76716  -9.7023
 -5.50000    1.89     1.89   0.76628  -9.7024
 -5.55000    1.89     1.89   0.76830  -9.7024
 -5.60000    1.89     1.89   0.76904  -9.7022
 -5.65000    1.89     1.89   0.76750  -9.7020
 -5.70000    1.89     1.89   0.76870  -9.7023
 -5.75000    1.89     1.89   0.76834  -9.7022
 -5.80000    1.89     1.89   0.76808  -9.7024
 -5.85000    1.89     1.89   0.76822  -9.7022
 -5.90000    1.89     1.89   0.76712  -9.7023
 -5.95000    1.89     1.89   0.76734  -9.7024
 -6.00000    1.89     1.89   0.76778  -9.7023
 -6.05000    1.89     1.89   0.76694  -9.7022
 -6.10000    1.89     1.89   0.76672  -9.7021
 -6.15000    1.89     1.89   0.76724  -9.7022
 -6.20000    1.89     1.89   0.76866  -9.7023
 -6.25000    1.89     1.89   0.76930  -9.7023
 -6.30000    1.89     1.89   0.76838  -9.7024
 -6.35000    1.89     1.89   0.76726  -9.7024
 -6.40000    1.89     1.89   0.76698  -9.7024
 -6.45000    1.89     1.89   0.76672  -9.7023
 -6.50000    1.89     1.89   0.76738  -9.7024
 -6.55000    1.89     1.89   0.76838  -9.7024
 -6.60000    1.89     1.89   0.76892  -9.7025
 -6.65000    1.89     1.89   0.76870  -9.7023
 -6.70000    1.89     1.89   0.77098  -9.7024
 -6.75000    1.89     1.89   0.76918  -9.7025
 -6.80000    1.89     1.89   0.76860  -9.7022
 -6.85000    1.89     1.89   0.76970  -9.7021
 -6.90000    1.89     1.89   0.76896  -9.7023
 -6.95000    1.89     1.89   0.76948  -9.7023
 -7.00000    1.89     1.89   0.76922  -9.7022
 -7.00000    1.89     1.89   0.76908  -9.7023
 -6.95000    1.89     1.89   0.76910  -9.7024
 -6.90000    1.89     1.89   0.77044  -9.7025
 -6.85000    1.89     1.89   0.77220  -9.7024
 -6.80000    1.89     1.89   0.77028  -9.7026
 -6.75000    1.89     1.89   0.77006  -9.7026
 -6.70000    1.89     1.89   0.77048  -9.7026
 -6.65000    1.89     1.89   0.76934  -9.7025
 -6.60000    1.89     1.89   0.76978  -9.7023
 -6.55000    1.89     1.89   0.77076  -9.7022
 -6.50000    1.89     1.89   0.77098  -9.7023
 -6.45000    1.89     1.89   0.77220  -9.7021
 -6.40000    1.89     1.89   0.77176  -9.7022
 -6.35000    1.89     1.89   0.77276  -9.7022
 -6.30000    1.89     1.89   0.77346  -9.7022
 -6.25000    1.89     1.89   0.77278  -9.7021
 -6.20000    1.89     1.89   0.77470  -9.7020
 -6.15000    1.89     1.89   0.77496  -9.7021
 -6.10000    1.89     1.89   0.77466  -9.7021
 -6.05000    1.89     1.89   0.77400  -9.7021
 -6.00000    1.89     1.89   0.77370  -9.7022
 -5.95000    1.89     1.89   0.77396  -9.7023
 -5.90000    1.89     1.89   0.77548  -9.7021
 -5.85000    1.89     1.89   0.77736  -9.7021
 -5.80000    1.89     1.89   0.77596  -9.7022
 -5.75000    1.89     1.89   0.77578  -9.7024
 -5.70000    1.89     1.89   0.77460  -9.7024
 -5.65000    1.89     1.89   0.77394  -9.7023
 -5.60000    1.89     1.89   0.77434  -9.7024
 -5.55000    1.89     1.89   0.77554  -9.7024
 -5.50000    1.89     1.89   0.77728  -9.7024
 -5.45000    1.89     1.89   0.77764  -9.7025
 -5.40000    1.89     1.89   0.77588  -9.7021
 -5.35000    1.89     1.89   0.77570  -9.7022
 -5.30000    1.89     1.89   0.77600  -9.7021
 -5.25000    1.89     1.89   0.77514  -9.7021
 -5.20000    1.89     1.89   0.77654  -9.7020
 -5.15000    1.89     1.89   0.77644  -9.7020
 -5.10000    1.89     1.89   0.77628  -9.7022
 -5.05000    1.89     1.89   0.77714  -9.7018
 -5.00000    1.89     1.89   0.77698  -9.7018
 -4.95000    1.89     1.89   0.77882  -9.7018
 -4.90000    1.89     1.89   0.77930  -9.7019
 -4.85000    1.89     1.89   0.77922  -9.7020
 -4.80000    1.89     1.89   0.77904  -9.7018
 -4.75000    1.89     1.89   0.77868  -9.7019
 -4.70000    1.89     1.89   0.77794  -9.7017
 -4.65000    1.89     1.89   0.77736  -9.7019
 -4.60000    1.89     1.89   0.77894  -9.7019
 -4.55000    1.89     1.89   0.77802  -9.7017
 -4.50000    1.89     1.89   0.77784  -9.7017
 -4.45000    1.89     1.89   0.77842  -9.7020
 -4.40000    1.89     1.89   0.77970  -9.7015
 -4.35000    1.89     1.89   0.77934  -9.7017
 -4.30000    1.89     1.89   0.77938  -9.7016
 -4.25000    1.89     1.89   0.77846  -9.7016
 -4.20000    1.89     1.89   0.77794  -9.7015
 -4.15000    1.89     1.89   0.77964  -9.7014
 -4.10000    1.89     1.89   0.78078  -9.7015
 -4.05000    1.89     1.89   0.78210  -9.7014
 -4.00000    1.89     1.89   0.78118  -9.7015
 -3.95000    1.89     1.89   0.78130  -9.7013
 -3.90000    1.89     1.89   0.78074  -9.7013
 -3.85000    1.89     1.89   0.78126  -9.7013
 -3.80000    1.89     1.89   0.78136  -9.7015
 -3.75000    1.89     1.89   0.78082  -9.7015
 -3.70000    1.89     1.89   0.78140  -9.7014
 -3.65000    1.89     1.89   0.78192  -9.7013
 -3.60000    1.89     1.89   0.78298  -9.7012
 -3.55000    1.89     1.89   0.78320  -9.7013
 -3.50000    1.89     1.89   0.78382  -9.7013
 -3.45000    1.89     1.89   0.78228  -9.7014
 -3.40000    1.89     1.89   0.78062  -9.7013
 -3.35000    1.89     1.89   0.78126  -9.7014
 -3.30000    1.89     1.89   0.78228  -9.7015
 -3.25000    1.89     1.89   0.78288  -9.7014
 -3.20000    1.89     1.89   0.78244  -9.7015
 -3.15000    1.89     1.89   0.78456  -9.7013
 -3.10000    1.89     1.89   0.78564  -9.7015
 -3.05000    1.89     1.89   0.78450  -9.7016
 -3.00000    1.89     1.89   0.78428  -9.7017
 -2.95000    1.89     1.89   0.78398  -9.7014
 -2.90000    1.89     1.89   0.78442  -9.7017
 -2.85000    1.89     1.89   0.78520  -9.7016
 -2.80000    1.89     1.89   0.78520  -9.7014
 -2.75000    1.89     1.89   0.78560  -9.7015
 -2.70000    1.89     1.89   0.78512  -9.7014
 -2.65000    1.89     1.89   0.78530  -9.7014
 -2.60000    1.89     1.89   0.78520  -9.7012
 -2.55000    1.89     1.89   0.78438  -9.7014
 -2.50000    1.89     1.89   0.78354  -9.7011
 -2.45000    1.89     1.89   0.78346  -9.7010
 -2.40000    1.89     1.89   0.78412  -9.7010
 -2.35000    1.89     1.89   0.78522  -9.7011
 -2.30000    1.89     1.89   0.78548  -9.7011
 -2.25000    1.89     1.89   0.78552  -9.7011
 -2.20000    1.89     1.89   0.78442  -9.7011
 -2.15000    1.89     1.89   0.78450  -9.7010
 -2.10000    1.89     1.89   0.78390  -9.7010
 -2.05000    1.89     1.89   0.78402  -9.7008
 -2.00000    1.89     1.89   0.78490  -9.7008
 -1.95000    1.89     1.89   0.78364  -9.7008
 -1.90000    1.89     1.89   0.78302  -9.7007
 -1.85000    1.89     1.89   0.78196  -9.7006
 -1.80000    1.89     1.89   0.78130  -9.7006
 -1.75000    1.89     1.89   0.78266  -9.7003
 -1.70000    1.89     1.89   0.78126  -9.7002
 -1.65000    1.89     1.89   0.78166  -9.7003
 -1.60000    1.89     1.89   0.78118  -9.7001
 -1.55000    1.89     1.89   0.78250  -9.7001
 -1.50000    1.89     1.89   0.78390  -9.6999
 -1.45000    1.89     1.89   0.78332  -9.6999
 -1.40000    1.89     1.89   0.78354  -9.6999
 -1.35000    1.89     1.89   0.78288  -9.6998
 -1.30000    1.89     1.89   0.78140  -9.6997
 -1.25000    1.89     1.89   0.78184  -9.6997
 -1.20000    1.89     1.89   0.78162  -9.6996
 -1.15000    1.89     1.89   0.78004  -9.6994
 -1.10000    1.89     1.89   0.77886  -9.6989
 -1.05000    1.89     1.89   0.77776  -9.6986
 -1.00000    1.89     1.89   0.77808  -9.6984
 -0.95000    1.89     1.89   0.77742  -9.6980
 -0.90000    1.89     1.89   0.77956  -9.6974
 -0.85000    1.89     1.89   0.78004  -9.6969
 -0.80000    1.89     1.89   0.78228  -9.6964
 -0.75000    1.89     1.89   0.78658  -9.6960
 -0.70000    1.89     1.89   0.78986  -9.6963
 -0.65000    1.89     1.89   0.79278  -9.6965
 -0.60000    1.89     1.89   0.79594  -9.6966
 -0.55000    1.89     1.89   0.79646  -9.6969
 -0.50000    1.89     1.89   0.79556  -9.6970
 -0.45000    1.89     1.89   0.79642  -9.6975
 -0.40000    1.89     1.89   0.79726  -9.6972
 -0.35000    1.89     1.89   0.79788  -9.6976
 -0.30000    1.89     1.89   0.79712  -9.6976
 -0.25000    1.89     1.89   0.79744  -9.6976
 -0.20000    1.89     1.89   0.79988  -9.6977
 -0.15000    1.89     1.89   0.79944  -9.6980
 -0.10000    1.89     1.89   0.80154  -9.6982
 -0.05000    1.89     1.89   0.79970  -9.6985
 0.00000    1.89     1.89   0.80062  -9.6986
 0.05000    1.89     1.89   0.80090  -9.6988
 0.10000    1.89     1.89   0.80106  -9.6987
 0.15000    1.89     1.89   0.80094  -9.6991
 0.20000    1.89     1.89   0.79994  -9.6992
 0.25000    1.89     1.89   0.80006  -9.6994
 0.30000    1.89     1.89   0.80274  -9.6998
 0.35000    1.89     1.89   0.80072  -9.6997
 0.40000    1.89     1.89   0.80062  -9.6997
 0.45000    1.89     1.89   0.80042  -9.6999
 0.50000    1.89     1.89   0.80038  -9.6997
 0.55000    1.89     1.89   0.80036  -9.6999
 0.60000    1.89     1.89   0.80072  -9.6999
 0.65000    1.89     1.89   0.80106  -9.6998
 0.70000    1.89     1.89   0.79902  -9.6997
 0.75000    1.89     1.89   0.79568  -9.6994
 0.80000    1.89     1.89   0.79064  -9.7001
 0.85000    1.89     1.89   0.78994  -9.7009
 0.90000    1.89     1.89   0.78866  -9.7011
 0.95000    1.89     1.89   0.78924  -9.7016
 1.00000    1.89     1.89   0.78972  -9.7018
 1.05000    1.89     1.89   0.79060  -9.7020
 1.10000    1.89     1.89   0.79240  -9.7022
 1.15000    1.89     1.89   0.79388  -9.7024
 1.20000    1.89     1.89   0.79616  -9.7026
 1.25000    1.89     1.89   0.79786  -9.7026
 1.30000    1.89     1.89   0.79922  -9.7027
 1.35000    1.89     1.89   0.79914  -9.7027
 1.40000    1.89     1.89   0.79910  -9.7027
 1.45000    1.89     1.89   0.79954  -9.7026
 1.50000    1.89     1.89   0.80084  -9.7026
 1.55000    1.89     1.89   0.80274  -9.7025
 1.60000    1.89     1.89   0.80370  -9.7026
 1.65000    1.89     1.89   0.80290  -9.7028
 1.70000    1.89     1.89   0.80256  -9.7029
 1.75000    1.89     1.89   0.80382  -9.7030
 1.80000    1.89     1.89   0.80462  -9.7030
 1.85000    1.89     1.89   0.80676  -9.7030
 1.90000    1.89     1.89   0.80576  -9.7031
 1.95000    1.89     1.89   0.80568  -9.7031
 2.00000    1.89     1.89   0.80590  -9.7034
 2.05000    1.89     1.89   0.80554  -9.7033
 2.10000    1.89     1.89   0.80628  -9.7034
 2.15000    1.89     1.89   0.80768  -9.7032
 2.20000    1.89     1.89   0.80734  -9.7034
 2.25000    1.89     1.89   0.80918  -9.7037
 2.30000    1.89     1.89   0.81124  -9.7036
 2.35000    1.89     1.89   0.81250  -9.7034
 2.40000    1.89     1.89   0.81508  -9.7035
 2.45000    1.89     1.89   0.81526  -9.7034
 2.50000    1.89     1.89   0.81632  -9.7035
 2.55000    1.89     1.89   0.81614  -9.7035
 2.60000    1.89     1.89   0.81514  -9.7034
 2.65000    1.89     1.89   0.81658  -9.7033
 2.70000    1.89     1.89   0.81654  -9.7034
 2.75000    1.89     1.89   0.81746  -9.7033
 2.80000    1.89     1.89   0.81886  -9.7036
 2.85000    1.89     1.89   0.81860  -9.7034
 2.90000    1.89     1.89   0.81688  -9.7034
 2.95000    1.89     1.89   0.81732  -9.7033
 3.00000    1.89     1.89   0.81820  -9.7034
 3.05000    1.89     1.89   0.81838  -9.7033
 3.10000    1.89     1.89   0.81912  -9.7033
 3.15000    1.89     1.89   0.82066  -9.7031
 3.20000    1.89     1.89   0.82232  -9.7035
 3.25000    1.89     1.89   0.82070  -9.7037
 3.30000    1.89     1.89   0.82188  -9.7034
 3.35000    1.89     1.89   0.82246  -9.7033
 3.40000    1.89     1.89   0.82236  -9.7032
 3.45000    1.89     1.89   0.82280  -9.7033
 3.50000    1.89     1.89   0.82420  -9.7030
 3.55000    1.89     1.89   0.82434  -9.7030
 3.60000    1.89     1.89   0.82408  -9.7029
 3.65000    1.89     1.89   0.82362  -9.7030
 3.70000    1.89     1.89   0.82512  -9.7032
 3.75000    1.89     1.89   0.82512  -9.7031
 3.80000    1.89     1.89   0.82678  -9.7028
 3.85000    1.89     1.89   0.82704  -9.7027
 3.90000    1.89     1.89   0.82622  -9.7027
 3.95000    1.89     1.89   0.82710  -9.7029
 4.00000    1.89     1.89   0.82722  -9.7028
 4.05000    1.89     1.89   0.82666  -9.7029
 4.10000    1.89     1.89   0.82732  -9.7030
 4.15000    1.89     1.89   0.82846  -9.7028
 4.20000    1.89     1.89   0.83082  -9.7027
 4.25000    1.89     1.89   0.83006  -9.7027
 4.30000    1.89     1.89   0.82982  -9.7026
 4.35000    1.89     1.89   0.82964  -9.7031
 4.40000    1.89     1.89   0.83112  -9.7028
 4.45000    1.89     1.89   0.83234  -9.7029
 4.50000    1.89     1.89   0.83340  -9.7029
 4.55000    1.89     1.89   0.83300  -9.7028
 4.60000    1.89     1.89   0.83226  -9.7030
 4.65000    1.89     1.89   0.83332  -9.7029
 4.70000    1.89     1.89   0.83296  -9.7028
 4.75000    1.89     1.89   0.83354  -9.7029
 4.80000    1.89     1.89   0.83440  -9.7028
 4.85000    1.89     1.89   0.83414  -9.7029
 4.90000    1.89     1.89   0.83560  -9.7028
 4.95000    1.89     1.89   0.83616  -9.7025
 5.00000    1.89     1.89   0.83796  -9.7028
 5.05000    1.89     1.89   0.83748  -9.7030
 5.10000    1.89     1.89   0.83708  -9.7029
 5.15000    1.89     1.89   0.83804  -9.7028
 5.20000    1.89     1.89   0.83856  -9.7026
 5.25000    1.89     1.89   0.83944  -9.7026
 5.30000    1.89     1.89   0.84006  -9.7026
 5.35000    1.89     1.89   0.84132  -9.7027
 5.40000    1.89     1.89   0.84164  -9.7025
 5.45000    1.89     1.89   0.84032  -9.7025
 5.50000    1.89     1.89   0.84086  -9.7026
 5.55000    1.89     1.89   0.84248  -9.7027
 5.60000    1.89     1.89   0.84356  -9.7027
 5.65000    1.89     1.89   0.84432  -9.7026
 5.70000    1.89     1.89   0.84220  -9.7026
 5.75000    1.89     1.89   0.84084  -9.7026
 5.80000    1.89     1.89   0.84138  -9.7023
 5.85000    1.89     1.89   0.84230  -9.7024
 5.90000    1.89     1.89   0.84338  -9.7023
 5.95000    1.89     1.89   0.84462  -9.7023
 6.00000    1.89     1.89   0.84598  -9.7025
 6.05000    1.89     1.89   0.84724  -9.7024
 6.10000    1.89     1.89   0.84826  -9.7024
 6.15000    1.89     1.89   0.84664  -9.7026
 6.20000    1.89     1.89   0.84532  -9.7024
 6.25000    1.89     1.89   0.84576  -9.7024
 6.30000    1.89     1.89   0.84642  -9.7024
 6.35000    1.89     1.89   0.84816  -9.7022
 6.40000    1.89     1.89   0.84684  -9.7022
 6.45000    1.89     1.89   0.84662  -9.7022
 6.50000    1.89     1.89   0.84570  -9.7022
 6.55000    1.89     1.89   0.84524  -9.7021
 6.60000    1.89     1.89   0.84610  -9.7020
 6.65000    1.89     1.89   0.84738  -9.7021
 6.70000    1.89     1.89   0.84760  -9.7023
 6.75000    1.89     1.89   0.84890  -9.7022
 6.80000    1.89     1.89   0.84914  -9.7021
 6.85000    1.89     1.89   0.84782  -9.7022
 6.90000    1.89     1.89   0.84778  -9.7021
 6.95000    1.89     1.89   0.84892  -9.7021
 7.00000    1.89     1.89   0.84922  -9.7019
 7.00000    1.89     1.89   0.84982  -9.7020
 6.95000    1.89     1.89   0.84996  -9.7020
 6.90000    1.89     1.89   0.84966  -9.7019
 6.85000    1.89     1.89   0.85030  -9.7016
 6.80000    1.89     1.89   0.84996  -9.7016
 6.75000    1.89     1.89   0.85040  -9.7016
 6.70000    1.89     1.89   0.85022  -9.7017
 6.65000    1.89     1.89   0.84940  -9.7016
 6.60000    1.89     1.89   0.85194  -9.7017
 6.55000    1.89     1.89   0.85128  -9.7019
 6.50000    1.89     1.89   0.85054  -9.7017
 6.45000    1.89     1.89   0.85092  -9.7017
 6.40000    1.89     1.89   0.85168  -9.7017
 6.35000    1.89     1.89   0.85026  -9.7019
 6.30000    1.89     1.89   0.84982  -9.7018
 6.25000    1.89     1.89   0.85054  -9.7018
 6.20000    1.89     1.89   0.84966  -9.7014
 6.15000    1.89     1.89   0.85000  -9.7018
 6.10000    1.89     1.89   0.84900  -9.7018
 6.05000    1.89     1.89   0.84804  -9.7019
 6.00000    1.89     1.89   0.84864  -9.7017
 5.95000    1.89     1.89   0.85000  -9.7019
 5.90000    1.89     1.89   0.85188  -9.7018
 5.85000    1.89     1.89   0.85276  -9.7017
 5.80000    1.89     1.89   0.85022  -9.7016
 5.75000    1.89     1.89   0.84982  -9.7019
 5.70000    1.89     1.89   0.85188  -9.7018
 5.65000    1.89     1.89   0.84922  -9.7019
 5.60000    1.89     1.89   0.84934  -9.7021
 5.55000    1.89     1.89   0.84948  -9.7019
 5.50000    1.89     1.89   0.84904  -9.7016
 5.45000    1.89     1.89   0.84984  -9.7019
 5.40000    1.89     1.89   0.85102  -9.7017
 5.35000    1.89     1.89   0.85368  -9.7019
 5.30000    1.89     1.89   0.85334  -9.7021
 5.25000    1.89     1.89   0.85114  -9.7020
 5.20000    1.89     1.89   0.84984  -9.7022
 5.15000    1.89     1.89   0.84960  -9.7021
 5.10000    1.89     1.89   0.85006  -9.7020
 5.05000    1.89     1.89   0.85084  -9.7020
 5.00000    1.89     1.89   0.85114  -9.7020
 4.95000    1.89     1.89   0.84966  -9.7021
 4.90000    1.89     1.89   0.84868  -9.7021
 4.85000    1.89     1.89   0.84764  -9.7021
 4.80000    1.89     1.89   0.84860  -9.7019
 4.75000    1.89     1.89   0.84706  -9.7023
 4.70000    1.89     1.89   0.84834  -9.7020
 4.65000    1.89     1.89   0.84868  -9.7022
 4.60000    1.89     1.89   0.84878  -9.7023
 4.55000    1.89     1.89   0.84914  -9.7020
 4.50000    1.89     1.89   0.84852  -9.7020
 4.45000    1.89     1.89   0.84852  -9.7019
 4.40000    1.89     1.89   0.84800  -9.7017
 4.35000    1.89     1.89   0.84912  -9.7019
 4.30000    1.89     1.89   0.84914  -9.7019
 4.25000    1.89     1.89   0.84830  -9.7019
 4.20000    1.89     1.89   0.84794  -9.7021
 4.15000    1.89     1.89   0.84790  -9.7020
 4.10000    1.89     1.89   0.84864  -9.7020
 4.05000    1.89     1.89   0.84856  -9.7021
 4.00000    1.89     1.89   0.84662  -9.7020
 3.95000    1.89     1.89   0.84636  -9.7022
 3.90000    1.89     1.89   0.84414  -9.7022
 3.85000    1.89     1.89   0.84374  -9.7020
 3.80000    1.89     1.89   0.84408  -9.7019
 3.75000    1.89     1.89   0.84356  -9.7021
 3.70000    1.89     1.89   0.84448  -9.7017
 3.65000    1.89     1.89   0.84410  -9.7017
 3.60000    1.89     1.89   0.84190  -9.7019
 3.55000    1.89     1.89   0.84242  -9.7019
 3.50000    1.89     1.89   0.84176  -9.7017
 3.45000    1.89     1.89   0.84182  -9.7018
 3.40000    1.89     1.89   0.84150  -9.7020
 3.35000    1.89     1.89   0.84076  -9.7022
 3.30000    1.89     1.89   0.84028  -9.7019
 3.25000    1.89     1.89   0.84010  -9.7021
 3.20000    1.89     1.89   0.84046  -9.7019
 3.15000    1.89     1.89   0.84172  -9.7019
 3.10000    1.89     1.89   0.84230  -9.7018
 3.05000    1.89     1.89   0.84046  -9.7018
 3.00000    1.89     1.89   0.83896  -9.7016
 2.95000    1.89     1.89   0.83682  -9.7017
 2.90000    1.89     1.89   0.83598  -9.7016
 2.85000    1.89     1.89   0.83660  -9.7014
 2.80000    1.89     1.89   0.83696  -9.7015
 2.75000    1.89     1.89   0.83678  -9.7017
 2.70000    1.89     1.89   0.83818  -9.7014
 2.65000    1.89     1.89   0.83722  -9.7016
 2.60000    1.89     1.89   0.83774  -9.7019
 2.55000    1.89     1.89   0.83576  -9.7020
 2.50000    1.89     1.89   0.83480  -9.7019
 2.45000    1.89     1.89   0.83580  -9.7019
 2.40000    1.89     1.89   0.83546  -9.7019
 2.35000    1.89     1.89   0.83322  -9.7018
 2.30000    1.89     1.89   0.83258  -9.7021
 2.25000    1.89     1.89   0.83310  -9.7019
 2.20000    1.89     1.89   0.83214  -9.7018
 2.15000    1.89     1.89   0.83230  -9.7016
 2.10000    1.89     1.89   0.83226  -9.7017
 2.05000    1.89     1.89   0.83332  -9.7015
 2.00000    1.89     1.89   0.83046  -9.7013
 1.95000    1.89     1.89   0.82796  -9.7011
 1.90000    1.89     1.89   0.82828  -9.7011
 1.85000    1.89     1.89   0.83008  -9.7012
 1.80000    1.89     1.89   0.83016  -9.7012
 1.75000    1.89     1.89   0.82932  -9.7011
 1.70000    1.89     1.89   0.82890  -9.7011
 1.65000    1.89     1.89   0.82740  -9.7010
 1.60000    1.89     1.89   0.82744  -9.7011
 1.55000    1.89     1.89   0.82758  -9.7009
 1.50000    1.89     1.89   0.82762  -9.7009
 1.45000    1.89     1.89   0.82806  -9.7007
 1.40000    1.89     1.89   0.82758  -9.7007
 1.35000    1.89     1.89   0.82696  -9.7007
 1.30000    1.89     1.89   0.82660  -9.7008
 1.25000    1.89     1.89   0.82564  -9.7008
 1.20000    1.89     1.89   0.82486  -9.7008
 1.15000    1.89     1.89   0.82454  -9.7004
 1.10000    1.89     1.89   0.82222  -9.7003
 1.05000    1.89     1.89   0.81990  -9.7000
 1.00000    1.89     1.89   0.81934  -9.6998
 0.95000    1.89     1.89   0.82110  -9.6993
 0.90000    1.89     1.89   0.81956  -9.6988
 0.85000    1.89     1.89   0.81768  -9.6983
 0.80000    1.89     1.89   0.82016  -9.6976
 0.75000    1.89     1.89   0.82600  -9.6971
 0.70000    1.89     1.89   0.83028  -9.6973
 0.65000    1.89     1.89   0.82928  -9.6973
 0.60000    1.89     1.89   0.82942  -9.6975
 0.55000    1.89     1.89   0.82844  -9.6976
 0.50000    1.89     1.89   0.82950  -9.6974
 0.45000    1.89     1.89   0.83082  -9.6975
 0.40000    1.89     1.89   0.83082  -9.6972
 0.35000    1.89     1.89   0.83122  -9.6973
 0.30000    1.89     1.89   0.83208  -9.6970
 0.25000    1.89     1.89   0.83134  -9.6966
 0.20000    1.89     1.89   0.83366  -9.6964
 0.15000    1.89     1.89   0.83310  -9.6964
 0.10000    1.89     1.89   0.83314  -9.6963
 0.05000    1.89     1.89   0.83196  -9.6961
 0.00000    1.89     1.89   0.83166  -9.6958
