 Field[T] Tsmpl[K] Tcntr[K] Signal Mirror[MM] RefSignal
 0.00000    1.74     1.76   0.36279  1.0036   6.26107
 0.05000    1.74     1.76   0.36249  1.0038   6.25796
 0.10000    1.74     1.76   0.36266  1.0035   6.26745
 0.15000    1.74     1.76   0.36138  1.0054   6.25969
 0.20000    1.74     1.76   0.35995  1.0050   6.26815
 0.25000    1.74     1.76   0.35661  1.0042   6.27119
 0.30000    1.74     1.76   0.35391  0.9994   6.28176
 0.35000    1.74     1.76   0.35320  0.9930   6.26946
 0.40000    1.74     1.76   0.35235  0.9882   6.27464
 0.45000    1.74     1.76   0.35271  0.9835   6.28492
 0.50000    1.74     1.76   0.35297  0.9808   6.28997
 0.55000    1.74     1.76   0.35355  0.9775   6.29434
 0.60000    1.74     1.76   0.35589  0.9710   6.30329
 0.65000    1.74     1.76   0.35711  0.9685   6.30150
 0.70000    1.74     1.76   0.35897  0.9652   6.30299
 0.75000    1.74     1.76   0.36106  0.9628   6.31504
 0.80000    1.74     1.76   0.36229  0.9619   6.30979
 0.85000    1.74     1.76   0.36418  0.9602   6.31162
 0.90000    1.74     1.76   0.36573  0.9596   6.32399
 0.95000    1.74     1.76   0.36705  0.9594   6.31093
 1.00000    1.75     1.76   0.36743  0.9596   6.31102
 1.05000    1.75     1.76   0.36811  0.9596   6.31902
 1.10000    1.75     1.76   0.36936  0.9586   6.32465
 1.15000    1.75     1.77   0.36954  0.9596   6.32455
 1.20000    1.75     1.77   0.37040  0.9591   6.32066
 1.25000    1.75     1.77   0.37090  0.9594   6.32365
 1.30000    1.75     1.77   0.37129  0.9589   6.34001
 1.35000    1.75     1.77   0.37217  0.9581   6.33592
 1.40000    1.75     1.77   0.37188  0.9598   6.32777
 1.45000    1.75     1.77   0.37277  0.9594   6.33490
 1.50000    1.75     1.77   0.37287  0.9589   6.32517
 1.55000    1.75     1.77   0.37247  0.9600   6.32890
 1.60000    1.75     1.77   0.37282  0.9605   6.33888
 1.65000    1.75     1.77   0.37307  0.9602   6.33966
 1.70000    1.75     1.77   0.37289  0.9599   6.34137
 1.75000    1.75     1.77   0.37323  0.9592   6.34048
 1.80000    1.75     1.77   0.37365  0.9592   6.34637
 1.85000    1.75     1.77   0.37409  0.9586   6.34075
 1.90000    1.75     1.77   0.37393  0.9594   6.33383
 1.95000    1.75     1.77   0.37389  0.9599   6.33728
 2.00000    1.75     1.77   0.37433  0.9590   6.34111
 2.05000    1.75     1.77   0.37407  0.9590   6.35616
 2.10000    1.75     1.77   0.37466  0.9589   6.33293
 2.15000    1.75     1.77   0.37442  0.9586   6.34385
 2.20000    1.75     1.77   0.37433  0.9593   6.35252
 2.25000    1.75     1.77   0.37414  0.9594   6.33206
 2.30000    1.75     1.77   0.37449  0.9598   6.34780
 2.35000    1.75     1.77   0.37443  0.9597   6.33374
 2.40000    1.75     1.77   0.37453  0.9596   6.34820
 2.45000    1.75     1.78   0.37434  0.9605   6.34687
 2.50000    1.75     1.78   0.37545  0.9583   6.35387
 2.55000    1.75     1.78   0.37501  0.9586   6.35352
 2.60000    1.75     1.78   0.37525  0.9588   6.35506
 2.65000    1.75     1.78   0.37555  0.9588   6.35681
 2.70000    1.75     1.78   0.37580  0.9578   6.34184
 2.75000    1.75     1.78   0.37512  0.9589   6.35921
 2.80000    1.75     1.78   0.37539  0.9590   6.36456
 2.85000    1.75     1.78   0.37531  0.9592   6.35360
 2.90000    1.75     1.78   0.37521  0.9597   6.35038
 2.95000    1.75     1.78   0.37431  0.9616   6.35835
 3.00000    1.75     1.78   0.37499  0.9603   6.34539
 3.00000    1.75     1.78   0.37558  0.9585   6.35116
 2.95000    1.75     1.78   0.37548  0.9594   6.34904
 2.90000    1.75     1.78   0.37562  0.9600   6.35044
 2.85000    1.75     1.78   0.37471  0.9596   6.35979
 2.80000    1.75     1.78   0.37482  0.9595   6.35668
 2.75000    1.75     1.78   0.37487  0.9595   6.34889
 2.70000    1.75     1.78   0.37481  0.9597   6.35761
 2.65000    1.75     1.78   0.37515  0.9593   6.34912
 2.60000    1.75     1.78   0.37460  0.9597   6.36802
 2.55000    1.75     1.78   0.37477  0.9596   6.36216
 2.50000    1.75     1.78   0.37465  0.9592   6.35174
 2.45000    1.75     1.78   0.37512  0.9591   6.34577
 2.40000    1.75     1.78   0.37476  0.9599   6.35743
 2.35000    1.75     1.78   0.37479  0.9596   6.35766
 2.30000    1.75     1.78   0.37430  0.9603   6.35046
 2.25000    1.75     1.77   0.37442  0.9605   6.36108
 2.20000    1.75     1.77   0.37433  0.9601   6.34084
 2.15000    1.75     1.77   0.37469  0.9593   6.35910
 2.10000    1.75     1.77   0.37393  0.9609   6.36226
 2.05000    1.75     1.77   0.37388  0.9609   6.35314
 2.00000    1.75     1.77   0.37374  0.9607   6.34860
 1.95000    1.75     1.77   0.37409  0.9604   6.34330
 1.90000    1.75     1.77   0.37431  0.9597   6.35178
 1.85000    1.75     1.77   0.37376  0.9599   6.36068
 1.80000    1.74     1.77   0.37370  0.9596   6.36561
 1.75000    1.74     1.77   0.37384  0.9599   6.35766
 1.70000    1.74     1.77   0.37326  0.9612   6.35224
 1.65000    1.74     1.77   0.37317  0.9603   6.35332
 1.60000    1.74     1.77   0.37286  0.9601   6.35235
 1.55000    1.74     1.76   0.37297  0.9602   6.35352
 1.50000    1.74     1.76   0.37238  0.9605   6.35574
 1.45000    1.74     1.76   0.37236  0.9600   6.35884
 1.40000    1.74     1.76   0.37227  0.9606   6.34984
 1.35000    1.74     1.76   0.37200  0.9597   6.36310
 1.30000    1.74     1.76   0.37203  0.9610   6.35853
 1.25000    1.74     1.76   0.37072  0.9615   6.36081
 1.20000    1.74     1.76   0.37089  0.9617   6.36789
 1.15000    1.74     1.76   0.37040  0.9612   6.35557
 1.10000    1.74     1.76   0.37053  0.9602   6.37045
 1.05000    1.74     1.76   0.36968  0.9604   6.35563
 1.00000    1.74     1.76   0.36903  0.9594   6.35994
 0.95000    1.74     1.76   0.36844  0.9604   6.36019
 0.90000    1.74     1.76   0.36755  0.9605   6.35447
 0.85000    1.74     1.76   0.36511  0.9619   6.35371
 0.80000    1.74     1.76   0.36420  0.9625   6.36069
 0.75000    1.74     1.76   0.36313  0.9628   6.36040
 0.70000    1.74     1.76   0.36207  0.9645   6.35973
 0.65000    1.74     1.76   0.35956  0.9674   6.36300
 0.60000    1.74     1.76   0.35814  0.9714   6.36879
 0.55000    1.74     1.76   0.35731  0.9740   6.36177
 0.50000    1.74     1.76   0.35676  0.9772   6.36131
 0.45000    1.74     1.76   0.35625  0.9817   6.35582
 0.40000    1.74     1.76   0.35619  0.9858   6.36247
 0.35000    1.74     1.76   0.35629  0.9917   6.35654
 0.30000    1.74     1.76   0.35765  0.9967   6.36475
 0.25000    1.74     1.76   0.36059  1.0033   6.35868
 0.20000    1.74     1.76   0.36403  1.0036   6.36967
 0.15000    1.74     1.76   0.36616  1.0030   6.35814
 0.10000    1.74     1.76   0.36738  1.0030   6.36561
 0.05000    1.74     1.76   0.36805  1.0027   6.36766
-0.00000    1.74     1.76   0.36857  1.0024   6.36086
