 Field[T] Tsmpl[K] Tcntr[K] Signal Mirror[MM] RefSignal
 0.00000    1.77     1.79   0.12859  1.0634   0.83842
 0.05000    1.77     1.79   0.12854  1.0636   0.83786
 0.10000    1.77     1.79   0.12829  1.0632   0.83836
 0.15000    1.77     1.79   0.12823  1.0643   0.83743
 0.20000    1.77     1.79   0.12784  1.0644   0.83737
 0.25000    1.77     1.79   0.12739  1.0644   0.83812
 0.30000    1.77     1.79   0.12723  1.0649   0.83689
 0.35000    1.77     1.79   0.12640  1.0644   0.83893
 0.40000    1.77     1.79   0.12506  1.0638   0.83692
 0.45000    1.77     1.79   0.12481  1.0598   0.83600
 0.50000    1.77     1.79   0.12430  1.0578   0.83619
 0.55000    1.77     1.79   0.12425  1.0556   0.83757
 0.60000    1.77     1.79   0.12425  1.0535   0.83785
 0.65000    1.77     1.79   0.12498  1.0506   0.83603
 0.70000    1.77     1.79   0.12525  1.0485   0.83712
 0.75000    1.77     1.79   0.12540  1.0475   0.83577
 0.80000    1.77     1.79   0.12548  1.0471   0.83472
 0.85000    1.77     1.79   0.12631  1.0453   0.83552
 0.90000    1.77     1.79   0.12639  1.0455   0.83529
 0.95000    1.77     1.79   0.12678  1.0450   0.83649
 1.00000    1.77     1.79   0.12695  1.0445   0.83549
 1.05000    1.77     1.79   0.12711  1.0447   0.83498
 1.10000    1.77     1.79   0.12742  1.0450   0.83447
 1.15000    1.77     1.79   0.12757  1.0451   0.83677
 1.20000    1.77     1.79   0.12751  1.0450   0.83390
 1.25000    1.77     1.79   0.12765  1.0444   0.83290
 1.30000    1.77     1.79   0.12791  1.0444   0.83602
 1.35000    1.77     1.79   0.12768  1.0451   0.83513
 1.40000    1.77     1.79   0.12799  1.0459   0.83609
 1.45000    1.77     1.79   0.12766  1.0464   0.83487
 1.50000    1.77     1.79   0.12805  1.0457   0.83297
 1.55000    1.77     1.79   0.12786  1.0457   0.83419
 1.60000    1.77     1.79   0.12786  1.0460   0.83453
 1.65000    1.77     1.79   0.12817  1.0457   0.83485
 1.70000    1.77     1.79   0.12825  1.0455   0.83312
 1.75000    1.77     1.79   0.12816  1.0455   0.83457
 1.80000    1.77     1.80   0.12800  1.0457   0.83440
 1.85000    1.77     1.80   0.12800  1.0459   0.83417
 1.90000    1.77     1.80   0.12787  1.0459   0.83469
 1.95000    1.77     1.80   0.12771  1.0466   0.83242
 2.00000    1.77     1.80   0.12798  1.0457   0.83518
 2.05000    1.77     1.80   0.12811  1.0459   0.83223
 2.10000    1.78     1.80   0.12806  1.0457   0.83400
 2.15000    1.78     1.80   0.12817  1.0457   0.83449
 2.20000    1.78     1.80   0.12824  1.0457   0.83297
 2.25000    1.78     1.80   0.12805  1.0457   0.83386
 2.30000    1.78     1.80   0.12818  1.0457   0.83362
 2.35000    1.78     1.80   0.12804  1.0457   0.83466
 2.40000    1.78     1.80   0.12809  1.0456   0.83323
 2.45000    1.78     1.80   0.12811  1.0458   0.83358
 2.50000    1.78     1.80   0.12780  1.0463   0.83311
 2.55000    1.78     1.80   0.12780  1.0464   0.83283
 2.60000    1.78     1.80   0.12816  1.0463   0.83202
 2.65000    1.78     1.80   0.12799  1.0458   0.83287
 2.70000    1.78     1.80   0.12789  1.0458   0.83423
 2.75000    1.78     1.80   0.12780  1.0460   0.83201
 2.80000    1.78     1.80   0.12807  1.0460   0.83226
 2.85000    1.78     1.80   0.12798  1.0462   0.83278
 2.90000    1.78     1.80   0.12790  1.0460   0.83239
 2.95000    1.78     1.80   0.12789  1.0460   0.83228
 3.00000    1.78     1.80   0.12777  1.0459   0.83276
 3.00000    1.78     1.80   0.12765  1.0464   0.83232
 2.95000    1.78     1.80   0.12770  1.0462   0.83286
 2.90000    1.78     1.80   0.12761  1.0462   0.83154
 2.85000    1.78     1.80   0.12758  1.0467   0.83282
 2.80000    1.78     1.80   0.12780  1.0462   0.83200
 2.75000    1.78     1.80   0.12788  1.0457   0.83283
 2.70000    1.78     1.80   0.12786  1.0459   0.83201
 2.65000    1.78     1.80   0.12785  1.0458   0.83288
 2.60000    1.78     1.80   0.12771  1.0459   0.83171
 2.55000    1.78     1.80   0.12784  1.0457   0.83131
 2.50000    1.78     1.80   0.12780  1.0456   0.83239
 2.45000    1.78     1.80   0.12804  1.0453   0.83108
 2.40000    1.78     1.80   0.12790  1.0456   0.83152
 2.35000    1.78     1.80   0.12786  1.0451   0.83342
 2.30000    1.78     1.80   0.12778  1.0456   0.83269
 2.25000    1.78     1.80   0.12785  1.0455   0.83127
 2.20000    1.78     1.80   0.12812  1.0453   0.83113
 2.15000    1.78     1.80   0.12790  1.0456   0.83289
 2.10000    1.77     1.80   0.12790  1.0457   0.83083
 2.05000    1.77     1.80   0.12786  1.0452   0.83438
 2.00000    1.77     1.79   0.12799  1.0449   0.83098
 1.95000    1.77     1.79   0.12793  1.0449   0.83030
 1.90000    1.77     1.79   0.12784  1.0450   0.83241
 1.85000    1.77     1.79   0.12776  1.0451   0.83190
 1.80000    1.77     1.79   0.12776  1.0452   0.83129
 1.75000    1.77     1.79   0.12757  1.0451   0.83257
 1.70000    1.77     1.79   0.12764  1.0452   0.83011
 1.65000    1.77     1.79   0.12767  1.0447   0.83321
 1.60000    1.77     1.79   0.12765  1.0450   0.83133
 1.55000    1.77     1.79   0.12767  1.0448   0.83285
 1.50000    1.77     1.79   0.12758  1.0450   0.83313
 1.45000    1.77     1.79   0.12756  1.0446   0.83247
 1.40000    1.77     1.79   0.12753  1.0450   0.83138
 1.35000    1.77     1.79   0.12745  1.0447   0.83259
 1.30000    1.77     1.79   0.12730  1.0448   0.83162
 1.25000    1.77     1.78   0.12714  1.0451   0.83336
 1.20000    1.77     1.78   0.12701  1.0449   0.83086
 1.15000    1.77     1.78   0.12698  1.0448   0.83295
 1.10000    1.77     1.78   0.12691  1.0447   0.83274
 1.05000    1.77     1.78   0.12680  1.0449   0.83219
 1.00000    1.77     1.78   0.12648  1.0446   0.83125
 0.95000    1.77     1.78   0.12606  1.0450   0.83119
 0.90000    1.77     1.78   0.12587  1.0447   0.83185
 0.85000    1.77     1.78   0.12554  1.0456   0.83075
 0.80000    1.77     1.78   0.12495  1.0462   0.83178
 0.75000    1.77     1.78   0.12497  1.0471   0.83318
 0.70000    1.77     1.78   0.12435  1.0482   0.83190
 0.65000    1.77     1.78   0.12380  1.0502   0.83220
 0.60000    1.77     1.78   0.12390  1.0519   0.83165
 0.55000    1.77     1.78   0.12376  1.0540   0.83225
 0.50000    1.77     1.78   0.12350  1.0566   0.83173
 0.45000    1.77     1.78   0.12375  1.0599   0.83011
 0.40000    1.76     1.78   0.12426  1.0626   0.83211
 0.35000    1.76     1.78   0.12509  1.0644   0.83160
 0.30000    1.76     1.78   0.12572  1.0648   0.83205
 0.25000    1.76     1.78   0.12653  1.0642   0.83030
 0.20000    1.76     1.78   0.12677  1.0639   0.83068
 0.15000    1.76     1.78   0.12658  1.0643   0.83379
 0.10000    1.76     1.78   0.12684  1.0640   0.83104
 0.05000    1.76     1.78   0.12683  1.0636   0.83128
-0.00000    1.76     1.78   0.12692  1.0644   0.83107
