 Field[T] Tsmpl[K] Tcntr[K] Signal Mirror[MM] RefSignal
 0.00000    1.77     1.78   0.59293  0.9873   7.26373
 0.05000    1.77     1.78   0.59186  0.9873   7.25994
 0.10000    1.77     1.78   0.59154  0.9873   7.25427
 0.15000    1.77     1.78   0.59074  0.9871   7.25116
 0.20000    1.77     1.78   0.58978  0.9868   7.25019
 0.25000    1.77     1.78   0.58905  0.9873   7.24378
 0.30000    1.77     1.78   0.58811  0.9873   7.24026
 0.35000    1.77     1.78   0.58663  0.9876   7.23393
 0.40000    1.77     1.78   0.58462  0.9877   7.23868
 0.45000    1.77     1.78   0.58168  0.9878   7.23711
 0.50000    1.77     1.78   0.57829  0.9871   7.22773
 0.55000    1.77     1.78   0.57514  0.9860   7.23037
 0.60000    1.77     1.79   0.57369  0.9839   7.22716
 0.65000    1.77     1.79   0.57335  0.9819   7.22673
 0.70000    1.77     1.79   0.57365  0.9799   7.22164
 0.75000    1.77     1.79   0.57495  0.9785   7.21806
 0.80000    1.77     1.79   0.57620  0.9776   7.21617
 0.85000    1.77     1.79   0.57738  0.9769   7.21568
 0.90000    1.77     1.79   0.57872  0.9760   7.21765
 0.95000    1.77     1.79   0.58033  0.9757   7.21293
 1.00000    1.77     1.79   0.58245  0.9751   7.20652
 1.05000    1.77     1.79   0.58344  0.9748   7.21351
 1.10000    1.77     1.79   0.58451  0.9749   7.21242
 1.15000    1.77     1.79   0.58551  0.9748   7.21130
 1.20000    1.77     1.79   0.58597  0.9749   7.20742
 1.25000    1.77     1.79   0.58671  0.9753   7.20943
 1.30000    1.77     1.79   0.58760  0.9746   7.20515
 1.35000    1.77     1.79   0.58807  0.9752   7.20628
 1.40000    1.77     1.79   0.58829  0.9753   7.20004
 1.45000    1.77     1.79   0.58862  0.9750   7.20184
 1.50000    1.77     1.79   0.58884  0.9756   7.20176
 1.55000    1.77     1.79   0.58902  0.9757   7.20078
 1.60000    1.77     1.79   0.58960  0.9753   7.19962
 1.65000    1.77     1.79   0.58965  0.9753   7.19260
 1.70000    1.77     1.79   0.59004  0.9753   7.19474
 1.75000    1.77     1.79   0.58959  0.9752   7.19747
 1.80000    1.77     1.79   0.58989  0.9757   7.19853
 1.85000    1.77     1.79   0.58989  0.9756   7.19148
 1.90000    1.77     1.79   0.58991  0.9755   7.19473
 1.95000    1.77     1.79   0.59033  0.9754   7.19363
 2.00000    1.77     1.79   0.59010  0.9755   7.19573
 2.05000    1.77     1.79   0.59034  0.9759   7.19248
 2.10000    1.77     1.79   0.59051  0.9757   7.18729
 2.15000    1.77     1.79   0.59107  0.9757   7.19254
 2.20000    1.77     1.79   0.59099  0.9757   7.19054
 2.25000    1.77     1.79   0.59105  0.9754   7.19048
 2.30000    1.77     1.79   0.59104  0.9757   7.19038
 2.35000    1.77     1.80   0.59078  0.9758   7.18882
 2.40000    1.77     1.80   0.59088  0.9753   7.18944
 2.45000    1.77     1.80   0.59103  0.9757   7.18480
 2.50000    1.77     1.80   0.59089  0.9757   7.18953
 2.55000    1.77     1.80   0.59125  0.9755   7.19057
 2.60000    1.77     1.80   0.59125  0.9757   7.18751
 2.65000    1.77     1.80   0.59147  0.9758   7.18510
 2.70000    1.77     1.80   0.59137  0.9757   7.18849
 2.75000    1.77     1.80   0.59112  0.9759   7.18287
 2.80000    1.77     1.80   0.59122  0.9757   7.18499
 2.85000    1.77     1.80   0.59153  0.9756   7.18040
 2.90000    1.77     1.80   0.59174  0.9756   7.18308
 2.95000    1.77     1.80   0.59175  0.9755   7.18369
 3.00000    1.77     1.80   0.59151  0.9758   7.18546
 3.00000    1.77     1.80   0.59130  0.9756   7.18077
 2.95000    1.77     1.80   0.59161  0.9759   7.17611
 2.90000    1.77     1.80   0.59159  0.9756   7.17895
 2.85000    1.77     1.80   0.59152  0.9758   7.17983
 2.80000    1.77     1.80   0.59136  0.9756   7.18041
 2.75000    1.77     1.80   0.59161  0.9756   7.18240
 2.70000    1.77     1.80   0.59181  0.9755   7.17928
 2.65000    1.77     1.80   0.59160  0.9758   7.17603
 2.60000    1.77     1.80   0.59146  0.9755   7.17699
 2.55000    1.77     1.80   0.59141  0.9755   7.17806
 2.50000    1.77     1.80   0.59151  0.9754   7.17584
 2.45000    1.77     1.80   0.59131  0.9756   7.17848
 2.40000    1.77     1.80   0.59112  0.9760   7.18173
 2.35000    1.77     1.80   0.59121  0.9757   7.18208
 2.30000    1.77     1.80   0.59182  0.9752   7.17253
 2.25000    1.77     1.80   0.59131  0.9751   7.17666
 2.20000    1.77     1.79   0.59123  0.9753   7.17226
 2.15000    1.77     1.79   0.59108  0.9752   7.17581
 2.10000    1.77     1.79   0.59130  0.9755   7.17498
 2.05000    1.77     1.79   0.59107  0.9754   7.16904
 2.00000    1.77     1.79   0.59094  0.9752   7.17067
 1.95000    1.77     1.79   0.59032  0.9754   7.17665
 1.90000    1.77     1.79   0.59071  0.9749   7.17458
 1.85000    1.77     1.79   0.59062  0.9752   7.17201
 1.80000    1.77     1.79   0.59024  0.9750   7.17017
 1.75000    1.77     1.79   0.58990  0.9753   7.16983
 1.70000    1.77     1.79   0.58930  0.9756   7.17130
 1.65000    1.77     1.79   0.58960  0.9752   7.17106
 1.60000    1.77     1.79   0.58936  0.9751   7.17370
 1.55000    1.77     1.79   0.58894  0.9753   7.17485
 1.50000    1.77     1.79   0.58884  0.9752   7.17468
 1.45000    1.76     1.78   0.58808  0.9751   7.16742
 1.40000    1.76     1.78   0.58781  0.9746   7.17042
 1.35000    1.76     1.78   0.58745  0.9748   7.17459
 1.30000    1.76     1.78   0.58659  0.9750   7.17246
 1.25000    1.76     1.78   0.58578  0.9751   7.16928
 1.20000    1.76     1.78   0.58542  0.9748   7.17200
 1.15000    1.76     1.78   0.58443  0.9745   7.16898
 1.10000    1.76     1.78   0.58332  0.9748   7.17624
 1.05000    1.76     1.78   0.58179  0.9749   7.17101
 1.00000    1.76     1.78   0.58071  0.9752   7.17251
 0.95000    1.76     1.78   0.57874  0.9757   7.16731
 0.90000    1.76     1.78   0.57720  0.9761   7.16925
 0.85000    1.76     1.78   0.57581  0.9768   7.16782
 0.80000    1.76     1.78   0.57409  0.9781   7.16574
 0.75000    1.76     1.78   0.57219  0.9791   7.16603
 0.70000    1.76     1.78   0.57128  0.9801   7.16097
 0.65000    1.76     1.78   0.57073  0.9816   7.16527
 0.60000    1.76     1.78   0.57069  0.9835   7.16377
 0.55000    1.76     1.78   0.57128  0.9857   7.16464
 0.50000    1.76     1.78   0.57390  0.9871   7.16604
 0.45000    1.76     1.78   0.57681  0.9883   7.16766
 0.40000    1.76     1.78   0.57948  0.9881   7.16268
 0.35000    1.76     1.78   0.58113  0.9882   7.16298
 0.30000    1.76     1.78   0.58195  0.9880   7.16727
 0.25000    1.76     1.78   0.58281  0.9879   7.16610
 0.20000    1.76     1.78   0.58347  0.9880   7.16686
 0.15000    1.76     1.78   0.58383  0.9879   7.16437
 0.10000    1.76     1.78   0.58389  0.9879   7.16529
 0.05000    1.76     1.78   0.58416  0.9883   7.16384
-0.00000    1.76     1.78   0.58440  0.9883   7.16394
