 Field[T] Tsmpl[K] Tcntr[K] Signal Mirror[MM] RefSignal
 0.00000    1.77     1.79   1.18275  1.0115   1.74393
 0.05000    1.77     1.79   1.18367  1.0124   1.74685
 0.10000    1.77     1.79   1.17785  1.0158   1.75076
 0.15000    1.77     1.79   1.18725  1.0129   1.74830
 0.20000    1.77     1.79   1.18755  1.0124   1.75042
 0.25000    1.77     1.79   1.18795  1.0127   1.75714
 0.30000    1.77     1.79   1.18957  1.0128   1.75654
 0.35000    1.77     1.79   1.19046  1.0132   1.75898
 0.40000    1.77     1.79   1.18974  1.0137   1.75906
 0.45000    1.77     1.79   1.18952  1.0142   1.76109
 0.50000    1.77     1.79   1.18919  1.0150   1.76345
 0.55000    1.77     1.79   1.19044  1.0144   1.75841
 0.60000    1.77     1.79   1.18961  1.0142   1.76403
 0.65000    1.77     1.79   1.18674  1.0155   1.76362
 0.70000    1.77     1.79   1.18536  1.0155   1.76671
 0.75000    1.77     1.79   1.18231  1.0153   1.76799
 0.80000    1.77     1.79   1.17874  1.0169   1.76774
 0.85000    1.77     1.79   1.17464  1.0149   1.77031
 0.90000    1.77     1.79   1.17217  1.0135   1.76943
 0.95000    1.77     1.79   1.17002  1.0124   1.77123
 1.00000    1.77     1.79   1.17033  1.0108   1.77214
 1.05000    1.77     1.79   1.17296  1.0100   1.77414
 1.10000    1.77     1.79   1.17780  1.0086   1.77282
 1.15000    1.77     1.79   1.18156  1.0079   1.77309
 1.20000    1.77     1.79   1.18734  1.0069   1.77248
 1.25000    1.77     1.79   1.19289  1.0064   1.77232
 1.30000    1.77     1.79   1.19483  1.0073   1.77477
 1.35000    1.77     1.79   1.20299  1.0076   1.77422
 1.40000    1.77     1.79   1.20849  1.0064   1.77474
 1.45000    1.77     1.79   1.21409  1.0066   1.77660
 1.50000    1.77     1.79   1.21577  1.0071   1.77425
 1.55000    1.77     1.79   1.22055  1.0073   1.77740
 1.60000    1.77     1.79   1.22342  1.0140   1.77707
 1.65000    1.77     1.79   1.22045  1.0158   1.77727
 1.70000    1.77     1.79   1.22459  1.0087   1.78026
 1.75000    1.77     1.79   1.22576  1.0093   1.77907
 1.80000    1.77     1.79   1.22790  1.0093   1.77700
 1.85000    1.77     1.79   1.23162  1.0091   1.77838
 1.90000    1.77     1.79   1.23208  1.0091   1.77852
 1.95000    1.77     1.79   1.23252  1.0095   1.77916
 2.00000    1.77     1.79   1.23649  1.0089   1.77878
 2.05000    1.77     1.79   1.23646  1.0093   1.78102
 2.10000    1.77     1.79   1.23827  1.0093   1.78057
 2.15000    1.77     1.79   1.23927  1.0096   1.78150
 2.20000    1.77     1.80   1.24091  1.0094   1.78133
 2.25000    1.77     1.80   1.24088  1.0104   1.77868
 2.30000    1.77     1.80   1.24165  1.0105   1.77940
 2.35000    1.77     1.80   1.24290  1.0104   1.77768
 2.40000    1.77     1.80   1.24387  1.0104   1.77828
 2.45000    1.77     1.80   1.24495  1.0102   1.77685
 2.50000    1.77     1.80   1.24477  1.0105   1.77953
 2.55000    1.77     1.80   1.24526  1.0109   1.77898
 2.60000    1.78     1.80   1.24714  1.0109   1.77775
 2.65000    1.78     1.80   1.24655  1.0110   1.77995
 2.70000    1.78     1.80   1.24683  1.0108   1.78046
 2.75000    1.78     1.80   1.24762  1.0108   1.77847
 2.80000    1.78     1.80   1.24815  1.0109   1.77975
 2.85000    1.78     1.80   1.24887  1.0108   1.78010
 2.90000    1.78     1.80   1.24938  1.0110   1.78019
 2.95000    1.78     1.80   1.24934  1.0113   1.78049
 3.00000    1.78     1.80   1.25007  1.0113   1.78048
 3.00000    1.78     1.80   1.24989  1.0113   1.78076
 2.95000    1.78     1.80   1.25028  1.0117   1.77986
 2.90000    1.78     1.80   1.25034  1.0115   1.77961
 2.85000    1.78     1.80   1.25037  1.0115   1.78206
 2.80000    1.78     1.80   1.25006  1.0111   1.78057
 2.75000    1.78     1.80   1.25031  1.0113   1.78041
 2.70000    1.78     1.80   1.25107  1.0116   1.78012
 2.65000    1.78     1.80   1.25093  1.0112   1.78086
 2.60000    1.78     1.80   1.25062  1.0113   1.78135
 2.55000    1.78     1.80   1.25067  1.0114   1.78102
 2.50000    1.78     1.80   1.25129  1.0113   1.78140
 2.45000    1.78     1.80   1.25113  1.0111   1.78107
 2.40000    1.78     1.80   1.25062  1.0108   1.78148
 2.35000    1.77     1.80   1.25059  1.0106   1.78193
 2.30000    1.77     1.80   1.25045  1.0105   1.78081
 2.25000    1.77     1.80   1.25057  1.0110   1.78231
 2.20000    1.77     1.80   1.24978  1.0109   1.78146
 2.15000    1.77     1.80   1.24926  1.0108   1.78171
 2.10000    1.77     1.79   1.24840  1.0107   1.78198
 2.05000    1.77     1.79   1.24877  1.0102   1.78186
 2.00000    1.77     1.79   1.24859  1.0105   1.78254
 1.95000    1.77     1.79   1.24710  1.0107   1.78220
 1.90000    1.77     1.79   1.24680  1.0106   1.78068
 1.85000    1.77     1.79   1.24542  1.0105   1.78142
 1.80000    1.77     1.79   1.24578  1.0102   1.78251
 1.75000    1.77     1.79   1.24421  1.0102   1.78141
 1.70000    1.77     1.79   1.24348  1.0102   1.78340
 1.65000    1.77     1.79   1.24200  1.0098   1.78183
 1.60000    1.77     1.79   1.24015  1.0101   1.78218
 1.55000    1.77     1.79   1.23740  1.0100   1.78311
 1.50000    1.77     1.79   1.23543  1.0099   1.78245
 1.45000    1.77     1.79   1.23238  1.0100   1.78179
 1.40000    1.77     1.79   1.22890  1.0100   1.78363
 1.35000    1.77     1.78   1.22493  1.0102   1.78325
 1.30000    1.77     1.78   1.22097  1.0104   1.78261
 1.25000    1.77     1.78   1.21649  1.0113   1.78512
 1.20000    1.77     1.78   1.21252  1.0121   1.78224
 1.15000    1.76     1.78   1.20827  1.0127   1.78298
 1.10000    1.76     1.78   1.20485  1.0136   1.78329
 1.05000    1.76     1.78   1.20176  1.0153   1.78395
 1.00000    1.76     1.78   1.20078  1.0166   1.78550
 0.95000    1.76     1.78   1.20001  1.0180   1.78496
 0.90000    1.76     1.78   1.20377  1.0196   1.78517
 0.85000    1.76     1.78   1.20827  1.0211   1.78615
 0.80000    1.76     1.78   1.21346  1.0213   1.78498
 0.75000    1.76     1.78   1.21834  1.0223   1.78555
 0.70000    1.76     1.78   1.22375  1.0225   1.78372
 0.65000    1.76     1.78   1.22735  1.0225   1.78519
 0.60000    1.76     1.78   1.23040  1.0224   1.78478
 0.55000    1.76     1.78   1.23299  1.0226   1.78691
 0.50000    1.76     1.78   1.23418  1.0224   1.78470
 0.45000    1.76     1.78   1.23531  1.0227   1.78740
 0.40000    1.76     1.78   1.23739  1.0231   1.78795
 0.35000    1.76     1.78   1.23805  1.0230   1.78924
 0.30000    1.76     1.78   1.23897  1.0231   1.78671
 0.25000    1.76     1.78   1.23934  1.0232   1.78512
 0.20000    1.76     1.78   1.24054  1.0232   1.78599
 0.15000    1.76     1.78   1.24147  1.0234   1.78810
 0.10000    1.76     1.78   1.24154  1.0234   1.78773
 0.05000    1.76     1.78   1.24169  1.0237   1.78795
-0.00000    1.76     1.78   1.24196  1.0240   1.78951
