 Field[T] Tsmpl[K] Tcntr[K] Signal   Mirror[MM]
 0.00000    4.45     2.93   0.82280  1.3739
 0.05000    4.44     2.91   0.82336  1.3746
 0.10000    4.42     2.91   0.82266  1.3739
 0.15000    4.41     2.92   0.82251  1.3741
 0.20000    4.39     2.90   0.82191  1.3744
 0.25000    4.39     2.92   0.82258  1.3736
 0.30000    4.38     2.90   0.82189  1.3733
 0.35000    4.36     2.92   0.82211  1.3729
 0.40000    4.36     2.92   0.82093  1.3728
 0.45000    4.35     2.92   0.82085  1.3734
 0.50000    4.36     2.93   0.82208  1.3721
 0.55000    4.36     2.92   0.82133  1.3732
 0.60000    4.34     2.92   0.82170  1.3723
 0.65000    4.34     2.92   0.82189  1.3722
 0.70000    4.33     2.92   0.82180  1.3721
 0.75000    4.33     2.93   0.82150  1.3726
 0.80000    4.33     2.93   0.82240  1.3727
 0.85000    4.32     2.92   0.82229  1.3730
 0.90000    4.31     2.92   0.82254  1.3724
 0.95000    4.31     2.94   0.82167  1.3735
 1.00000    4.31     2.90   0.82195  1.3732
 1.05000    4.30     2.91   0.82185  1.3734
 1.10000    4.29     2.89   0.82197  1.3732
 1.15000    4.28     2.90   0.82208  1.3728
 1.20000    4.27     2.91   0.82210  1.3724
 1.25000    4.27     2.88   0.82176  1.3738
 1.30000    4.26     2.90   0.82169  1.3733
 1.35000    4.24     2.90   0.82097  1.3734
 1.40000    4.22     2.90   0.82174  1.3732
 1.45000    4.21     2.92   0.82085  1.3741
 1.50000    4.20     2.93   0.82115  1.3735
 1.55000    4.19     2.92   0.82155  1.3735
 1.60000    4.17     2.92   0.82201  1.3732
 1.65000    4.16     2.93   0.82112  1.3749
 1.70000    4.16     2.95   0.82178  1.3741
 1.75000    4.16     2.94   0.82199  1.3738
 1.80000    4.16     2.94   0.82127  1.3739
 1.85000    4.16     2.95   0.82218  1.3745
 1.90000    4.16     2.95   0.82216  1.3744
 1.95000    4.15     2.96   0.82199  1.3744
 2.00000    4.14     2.93   0.82036  1.3754
 2.05000    4.13     2.97   0.82189  1.3746
 2.10000    4.13     2.94   0.82175  1.3749
 2.15000    4.11     2.95   0.82171  1.3753
 2.20000    4.11     2.95   0.82123  1.3750
 2.25000    4.11     2.96   0.82118  1.3762
 2.30000    4.11     2.97   0.82120  1.3757
 2.35000    4.11     2.97   0.82103  1.3760
 2.40000    4.11     2.97   0.82075  1.3753
 2.45000    4.12     2.98   0.82112  1.3750
 2.50000    4.12     2.99   0.82131  1.3753
 2.55000    4.14     3.00   0.82127  1.3758
 2.60000    4.13     2.96   0.82223  1.3751
 2.65000    4.15     2.98   0.82190  1.3761
 2.70000    4.15     2.98   0.82240  1.3755
 2.75000    4.17     3.00   0.82116  1.3778
 2.80000    4.18     2.99   0.82183  1.3761
 2.85000    4.19     3.00   0.82174  1.3768
 2.90000    4.19     2.99   0.82244  1.3770
 2.95000    4.19     2.99   0.82238  1.3778
 3.00000    4.19     2.99   0.82140  1.3772
 3.05000    4.19     2.99   0.82163  1.3768
 3.10000    4.19     2.99   0.82102  1.3774
 3.15000    4.20     3.00   0.82163  1.3781
 3.20000    4.20     3.00   0.82241  1.3779
 3.25000    4.21     3.00   0.82239  1.3780
 3.30000    4.21     3.00   0.82284  1.3786
 3.35000    4.22     3.01   0.82301  1.3786
 3.40000    4.22     3.00   0.82276  1.3794
 3.45000    4.22     3.00   0.82275  1.3794
 3.50000    4.22     3.00   0.82220  1.3797
 3.55000    4.22     3.01   0.82210  1.3794
 3.60000    4.22     3.00   0.82285  1.3799
 3.65000    4.22     3.00   0.82332  1.3794
 3.70000    4.22     3.00   0.82242  1.3808
 3.75000    4.22     3.00   0.82203  1.3806
 3.80000    4.22     3.00   0.82278  1.3804
 3.85000    4.23     3.00   0.82201  1.3813
 3.90000    4.23     3.00   0.82265  1.3813
 3.95000    4.23     3.00   0.82295  1.3812
 4.00000    4.23     3.00   0.82247  1.3821
 4.05000    4.23     3.00   0.82223  1.3829
 4.10000    4.23     3.00   0.82181  1.3825
 4.15000    4.24     3.00   0.82144  1.3825
 4.20000    4.24     3.00   0.82208  1.3827
 4.25000    4.25     3.01   0.82250  1.3831
 4.30000    4.25     3.00   0.82203  1.3835
 4.35000    4.26     3.00   0.82204  1.3837
 4.40000    4.26     3.00   0.82186  1.3840
 4.45000    4.27     3.01   0.82273  1.3847
 4.50000    4.27     3.01   0.82172  1.3852
 4.55000    4.27     3.00   0.82233  1.3846
 4.60000    4.28     3.00   0.82256  1.3849
 4.65000    4.28     3.00   0.82315  1.3853
 4.70000    4.29     3.00   0.82208  1.3859
 4.75000    4.29     3.00   0.82186  1.3863
 4.80000    4.30     3.01   0.82204  1.3863
 4.85000    4.30     3.01   0.82141  1.3868
 4.90000    4.31     3.01   0.82187  1.3869
 4.95000    4.31     3.01   0.82175  1.3875
 5.00000    4.31     3.01   0.82269  1.3873
 5.05000    4.32     3.01   0.82257  1.3872
 5.10000    4.32     3.00   0.82201  1.3881
 5.15000    4.32     3.00   0.82232  1.3877
 5.20000    4.32     3.00   0.82214  1.3881
 5.25000    4.32     2.99   0.82267  1.3881
 5.30000    4.32     3.00   0.82267  1.3884
 5.35000    4.32     3.01   0.82214  1.3891
 5.40000    4.32     3.00   0.82164  1.3891
 5.45000    4.33     3.00   0.82131  1.3904
 5.50000    4.33     3.01   0.82153  1.3905
 5.55000    4.34     3.01   0.82178  1.3902
 5.60000    4.34     3.01   0.82192  1.3902
 5.65000    4.34     3.01   0.82181  1.3911
 5.70000    4.35     3.00   0.82080  1.3916
 5.75000    4.35     3.00   0.82180  1.3920
 5.80000    4.35     3.01   0.82203  1.3921
 5.85000    4.35     3.00   0.82144  1.3926
 5.90000    4.35     3.00   0.82097  1.3927
 5.95000    4.35     3.00   0.82173  1.3929
 6.00000    4.34     3.01   0.82175  1.3932
 6.05000    4.34     3.01   0.82194  1.3939
 6.10000    4.34     3.00   0.82127  1.3933
 6.15000    4.34     3.00   0.82079  1.3945
 6.20000    4.34     3.00   0.82154  1.3944
 6.25000    4.34     3.00   0.82245  1.3939
 6.30000    4.34     2.99   0.82130  1.3958
 6.35000    4.34     2.99   0.82150  1.3961
 6.40000    4.35     3.00   0.82190  1.3960
 6.45000    4.35     3.01   0.82150  1.3959
 6.50000    4.36     3.00   0.82190  1.3962
 6.55000    4.36     3.00   0.82151  1.3964
 6.60000    4.36     3.01   0.81989  1.3988
 6.65000    4.37     3.01   0.81900  1.3990
 6.70000    4.38     3.01   0.82062  1.3989
 6.75000    4.38     3.01   0.81971  1.3982
 6.80000    4.38     3.01   0.82107  1.3994
 6.85000    4.39     3.00   0.82092  1.3994
 6.90000    4.39     3.01   0.81980  1.3990
 6.95000    4.39     3.00   0.82169  1.3994
 7.00000    4.40     3.01   0.82174  1.3991
 7.00000    4.40     3.00   0.82130  1.3992
 6.95000    4.40     3.00   0.82152  1.3995
 6.90000    4.40     3.00   0.82186  1.3991
 6.85000    4.41     3.00   0.82129  1.3988
 6.80000    4.42     3.01   0.82042  1.3987
 6.75000    4.43     3.01   0.82167  1.3984
 6.70000    4.44     3.02   0.82100  1.3977
 6.65000    4.46     3.03   0.82109  1.3981
 6.60000    4.47     3.03   0.82090  1.3973
 6.55000    4.49     3.04   0.82143  1.3978
 6.50000    4.50     3.05   0.82100  1.3974
 6.45000    4.52     3.05   0.82007  1.3980
 6.40000    4.55     3.06   0.82079  1.3973
 6.35000    4.56     3.08   0.82048  1.3965
 6.30000    4.58     3.08   0.82172  1.3971
 6.25000    4.60     3.10   0.82052  1.3965
 6.20000    4.62     3.09   0.82072  1.3974
 6.15000    4.64     3.08  -0.00001  1.2501
 6.10000    4.66     3.10   0.82148  1.3955
 6.05000    4.68     3.10   0.82142  1.3957
 6.00000    4.69     3.10   0.81968  1.3968
 5.95000    4.71     3.11   0.82043  1.3960
 5.90000    4.73     3.11   0.82032  1.3954
 5.85000    4.74     3.10   0.82019  1.3954
 5.80000    4.76     3.13   0.82036  1.3950
 5.75000    4.78     3.12   0.82004  1.3952
 5.70000    4.79     3.12   0.82012  1.3946
 5.65000    4.81     3.12   0.82062  1.3945
 5.60000    4.82     3.12   0.82004  1.3962
 5.55000    4.84     3.11   0.82021  1.3942
 5.50000    4.86     3.13   0.81974  1.3940
 5.45000    4.88     3.12   0.82038  1.3937
 5.40000    4.89     3.12   0.82031  1.3935
 5.35000    4.91     3.14   0.82087  1.3936
 5.30000    4.93     3.12   0.82068  1.3931
 5.25000    4.94     3.14   0.82026  1.3931
 5.20000    4.97     3.12   0.82086  1.3929
 5.15000    4.98     3.13   0.82137  1.3930
 5.10000    5.00     3.15   0.81966  1.3927
 5.05000    5.03     3.13   0.81981  1.3924
 5.00000    5.05     3.12   0.81999  1.3917
 4.95000    5.07     3.12   0.82030  1.3920
 4.90000    5.09     3.14   0.81862  1.3920
 4.85000    5.12     3.12   0.81841  1.3931
 4.80000    5.14     3.12   0.82009  1.3920
 4.75000    5.16     3.11   0.82030  1.3929
 4.70000    5.17     3.13   0.81970  1.3919
 4.65000    5.19     3.12   0.82102  1.3903
 4.60000    5.21     3.10   0.81950  1.3915
 4.55000    5.22     3.10   0.82036  1.3910
 4.50000    5.23     3.11   0.82020  1.3906
 4.45000    5.25     3.10   0.82047  1.3914
 4.40000    5.26     3.10   0.81878  1.3917
 4.35000    5.26     3.09   0.81807  1.3912
 4.30000    5.27     3.09   0.81878  1.3907
 4.25000    5.28     3.08   0.81975  1.3907
 4.20000    5.29     3.08   0.82043  1.3902
 4.15000    5.29     3.09   0.81987  1.3901
 4.10000    5.30     3.08   0.82008  1.3903
 4.05000    5.31     3.08   0.82036  1.3895
 4.00000    5.31     3.07   0.82021  1.3894
 3.95000    5.31     3.06   0.81981  1.3900
 3.90000    5.31     3.06   0.81941  1.3892
 3.85000    5.31     3.06   0.82017  1.3883
 3.80000    5.32     3.07   0.81971  1.3880
 3.75000    5.33     3.05   0.81969  1.3889
 3.70000    5.33     3.06   0.81951  1.3887
 3.65000    5.33     3.05   0.81893  1.3883
 3.60000    5.33     3.05   0.81890  1.3880
 3.55000    5.34     3.05   0.81912  1.3885
 3.50000    5.34     3.04   0.81946  1.3885
 3.45000    5.35     3.05   0.81880  1.3876
 3.40000    5.35     3.04   0.81875  1.3879
 3.35000    5.35     3.04   0.81911  1.3877
 3.30000    5.36     3.06   0.81789  1.3873
 3.25000    5.38     3.05   0.81862  1.3873
 3.20000    5.38     3.05   0.81833  1.3868
 3.15000    5.39     3.04   0.81769  1.3877
 3.10000    5.39     3.04   0.81747  1.3868
 3.05000    5.39     3.04   0.81732  1.3876
 3.00000    5.39     3.03   0.81751  1.3874
 2.95000    5.39     3.03   0.81755  1.3879
 2.90000    5.39     3.03   0.81751  1.3878
 2.85000    5.38     3.03   0.81789  1.3866
 2.80000    5.37     3.03   0.81662  1.3881
 2.75000    5.37     3.02   0.81701  1.3869
 2.70000    5.36     3.02   0.81700  1.3869
 2.65000    5.36     3.01   0.81805  1.3860
 2.60000    5.35     3.01   0.81734  1.3859
 2.55000    5.34     3.01   0.81676  1.3857
 2.50000    5.34     3.01   0.81641  1.3860
 2.45000    5.33     3.01   0.81716  1.3861
 2.40000    5.32     3.02   0.81629  1.3867
 2.35000    5.32     3.01   0.81610  1.3863
 2.30000    5.31     3.01   0.81644  1.3859
 2.25000    5.30     3.00   0.81631  1.3862
 2.20000    5.29     3.01   0.81504  1.3875
 2.15000    5.28     3.01   0.81695  1.3853
 2.10000    5.28     3.01   0.81726  1.3852
 2.05000    5.27     3.01   0.81720  1.3843
 2.00000    5.26     3.01   0.81724  1.3842
 1.95000    5.25     3.01   0.81648  1.3843
 1.90000    5.24     3.01   0.81630  1.3843
 1.85000    5.23     3.01   0.81513  1.3849
 1.80000    5.23     3.01   0.81560  1.3848
 1.75000    5.22     3.00   0.81599  1.3842
 1.70000    5.22     3.02   0.81556  1.3839
 1.65000    5.22     3.01   0.81636  1.3848
 1.60000    5.23     3.02   0.81600  1.3844
 1.55000    5.23     3.02   0.81587  1.3843
 1.50000    5.23     3.02   0.81529  1.3846
 1.45000    5.23     3.01   0.81526  1.3842
 1.40000    5.23     3.01   0.81550  1.3843
 1.35000    5.22     3.01   0.81526  1.3837
 1.30000    5.22     3.01   0.81570  1.3842
 1.25000    5.21     3.01   0.81536  1.3845
 1.20000    5.20     3.02   0.81509  1.3837
 1.15000    5.20     3.01   0.81536  1.3848
 1.10000    5.20     3.01   0.81524  1.3837
 1.05000    5.19     3.01   0.81477  1.3836
 1.00000    5.19     3.01   0.81486  1.3839
 0.95000    5.18     3.00   0.81465  1.3836
 0.90000    5.17     3.01   0.81553  1.3834
 0.85000    5.16     3.01   0.81471  1.3835
 0.80000    5.15     3.00   0.81348  1.3836
 0.75000    5.14     3.00   0.81377  1.3832
 0.70000    5.12     3.00   0.81334  1.3829
 0.65000    5.11     2.99   0.81427  1.3836
 0.60000    5.10     2.99   0.81375  1.3835
 0.55000    5.09     2.99   0.81401  1.3829
 0.50000    5.08     2.99   0.81303  1.3838
 0.45000    5.07     2.99   0.81310  1.3838
 0.40000    5.07     2.99   0.81318  1.3846
 0.35000    5.06     2.99   0.81257  1.3842
 0.30000    5.06     2.99   0.81178  1.3851
 0.25000    5.05     2.99   0.81303  1.3857
 0.20000    5.05     2.99   0.81282  1.3853
 0.15000    5.05     3.00   0.81318  1.3857
 0.10000    5.04     3.00   0.81311  1.3857
 0.05000    5.03     2.99   0.81311  1.3856
-0.00000    5.02     2.99   0.81297  1.3859
