 Field[T] Tsmpl[K] Tcntr[K] Signal   Mirror[MM]
 0.00000    4.93     3.00   1.04191  0.7984
 0.05000    4.93     2.99   1.04055  0.7978
 0.10000    4.93     2.99   1.04305  0.7980
 0.15000    4.93     2.99   1.04087  0.7985
 0.20000    4.94     2.99   1.04243  0.7986
 0.25000    4.94     3.00   1.04351  0.7978
 0.30000    4.95     3.00   1.04421  0.7980
 0.35000    4.95     2.99   1.03980  0.8023
 0.40000    4.95     2.99   1.04512  0.7963
 0.45000    4.94     3.02   1.04636  0.7968
 0.50000    4.94     2.99   1.04695  0.7964
 0.55000    4.92     3.00   1.04825  0.7964
 0.60000    4.91     2.99   1.04862  0.7964
 0.65000    4.90     2.99   1.04889  0.7966
 0.70000    4.89     3.01   1.04718  0.7978
 0.75000    4.88     3.00   1.04901  0.7971
 0.80000    4.88     2.99   1.04989  0.7972
 0.85000    4.87     2.99   1.05008  0.7966
 0.90000    4.86     2.99   1.05090  0.7967
 0.95000    4.86     2.98   1.05136  0.7971
 1.00000    4.85     3.00   1.05216  0.7976
 1.05000    4.85     2.98   1.05082  0.7974
 1.10000    4.84     2.98   1.05224  0.7970
 1.15000    4.84     2.98   1.05308  0.7970
 1.20000    4.84     2.98   1.05242  0.7978
 1.25000    4.84     2.99   1.05261  0.7978
 1.30000    4.84     2.98   1.05422  0.7975
 1.35000    4.84     2.98   1.05416  0.7979
 1.40000    4.84     3.00   1.05347  0.7987
 1.45000    4.85     2.99   1.05387  0.7983
 1.50000    4.85     2.99   1.05471  0.7984
 1.55000    4.86     2.99   1.05451  0.7986
 1.60000    4.87     2.99   1.05521  0.7984
 1.65000    4.89     3.00   1.05447  0.7984
 1.70000    4.89     2.99   1.05633  0.7986
 1.75000    4.90     3.00   1.05595  0.7990
 1.80000    4.90     2.99   1.05672  0.7992
 1.85000    4.90     3.00   1.05649  0.7994
 1.90000    4.90     2.99   1.05603  0.7995
 1.95000    4.90     2.99   1.05694  0.7996
 2.00000    4.90     3.00   1.05703  0.7998
 2.00000    4.90     2.99   1.05561  0.7997
 1.95000    4.90     2.99   1.05616  0.7994
 1.90000    4.90     2.99   1.05758  0.7995
 1.85000    4.90     2.99   1.05666  0.7995
 1.80000    4.92     3.01   1.05672  0.7996
 1.75000    4.92     2.99   1.05753  0.7990
 1.70000    4.92     3.00   1.05662  0.7988
 1.65000    4.92     2.99   1.05655  0.7993
 1.60000    4.92     3.00   1.05737  0.7988
 1.55000    4.92     3.00   1.05665  0.7989
 1.50000    4.92     3.00   1.05643  0.7988
 1.45000    4.92     3.02   1.05552  0.7985
 1.40000    4.92     3.00   1.05564  0.7982
 1.35000    4.92     3.00   1.05668  0.7981
 1.30000    4.92     3.03   1.05632  0.7984
 1.25000    4.93     3.00   1.05681  0.7979
 1.20000    4.93     3.01   1.05619  0.7981
 1.15000    4.93     3.01   1.05621  0.7986
 1.10000    4.93     3.01   1.05593  0.7981
 1.05000    4.93     3.02   1.05661  0.7978
 1.00000    4.94     3.01   1.05569  0.7992
 0.95000    4.94     3.01   1.05770  0.7980
 0.90000    4.95     3.01   1.05606  0.7981
 0.85000    4.95     3.02   1.05610  0.7977
 0.80000    4.95     3.01   1.05674  0.7986
 0.75000    4.96     3.00   1.05627  0.7975
 0.70000    4.96     3.02   1.05530  0.7982
 0.65000    4.97     3.00   1.05487  0.7979
 0.60000    4.97     3.00   1.05413  0.7979
 0.55000    4.97     3.02   1.05449  0.7977
 0.50000    4.98     3.00   1.05444  0.7975
 0.45000    4.98     3.02   1.05334  0.7985
 0.40000    4.99     3.01   1.05449  0.7975
 0.35000    4.98     3.01   1.05375  0.7983
 0.30000    4.99     3.01   1.05253  0.7989
 0.25000    4.99     3.02   1.05203  0.7992
 0.20000    4.99     3.01   1.05446  0.7990
 0.15000    4.99     3.00   1.05431  0.7990
 0.10000    4.99     3.02   1.05493  0.7992
 0.05000    4.99     3.00   1.05451  0.7990
-0.00000    4.99     3.00   1.05462  0.7996
