 Field[T] Tsmpl[K] Tcntr[K] Signal   Mirror[MM]
 0.00000    5.22     2.94   1.24202  2.6348
 0.05000    5.21     2.95   1.24163  2.6348
 0.10000    5.21     2.95   1.24130  2.6351
 0.15000    5.20     2.94   1.24137  2.6343
 0.20000    5.19     2.94   1.24113  2.6345
 0.25000    5.18     2.94   1.24029  2.6347
 0.30000    5.18     2.96   1.24030  2.6347
 0.35000    5.18     2.94   1.23988  2.6347
 0.40000    5.16     2.94   1.23933  2.6348
 0.45000    5.16     2.95   1.23873  2.6346
 0.50000    5.14     2.94   1.23811  2.6346
 0.55000    5.13     2.93   1.23782  2.6347
 0.60000    5.11     2.94   1.23704  2.6347
 0.65000    5.10     2.94   1.23554  2.6350
 0.70000    5.09     2.93   1.23500  2.6352
 0.75000    5.07     2.92   1.23424  2.6353
 0.80000    5.06     2.93   1.23276  2.6355
 0.85000    5.04     2.92   1.23239  2.6353
 0.90000    5.03     2.94   1.23144  2.6354
 0.95000    5.02     2.93   1.22935  2.6355
 1.00000    5.00     2.93   1.22784  2.6357
 1.05000    4.99     2.94   1.22580  2.6357
 1.10000    4.98     2.92   1.22386  2.6360
 1.15000    4.97     2.92   1.22211  2.6361
 1.20000    4.96     2.93   1.21933  2.6358
 1.25000    4.95     2.92   1.21699  2.6358
 1.30000    4.94     2.93   1.21467  2.6357
 1.35000    4.93     2.93   1.21209  2.6355
 1.40000    4.93     2.92   1.21060  2.6350
 1.45000    4.92     2.93   1.21052  2.6345
 1.50000    4.92     2.93   1.21323  2.6341
 1.55000    4.92     2.95   1.21589  2.6338
 1.60000    4.92     2.95   1.21882  2.6338
 1.65000    4.92     2.93   1.22007  2.6339
 1.70000    4.92     2.95   1.22135  2.6341
 1.75000    4.93     2.95   1.22219  2.6343
 1.80000    4.93     2.97   1.22394  2.6342
 1.85000    4.95     2.96   1.22402  2.6343
 1.90000    4.95     2.96   1.22444  2.6344
 1.95000    4.95     2.95   1.22500  2.6345
 2.00000    4.95     2.96   1.22503  2.6345
 2.05000    4.96     2.98   1.22550  2.6347
 2.10000    4.97     2.96   1.22578  2.6348
 2.15000    4.97     2.97   1.22568  2.6351
 2.20000    4.97     2.98   1.22634  2.6350
 2.25000    4.97     2.98   1.22640  2.6352
 2.30000    4.97     3.01   1.22667  2.6352
 2.35000    4.97     2.97   1.22664  2.6354
 2.40000    4.97     2.99   1.22672  2.6355
 2.45000    4.96     2.98   1.22667  2.6354
 2.50000    4.96     3.00   1.22716  2.6355
 2.55000    4.96     2.99   1.22697  2.6360
 2.60000    4.96     3.00   1.22722  2.6359
 2.65000    4.96     3.01   1.22711  2.6363
 2.70000    4.97     3.01   1.22697  2.6365
 2.75000    4.97     3.00   1.22728  2.6365
 2.80000    4.97     3.00   1.22786  2.6364
 2.85000    4.97     3.00   1.22778  2.6366
 2.90000    4.97     3.01   1.22844  2.6367
 2.95000    4.98     3.01   1.22811  2.6368
 3.00000    4.98     3.01   1.22790  2.6370
 3.05000    4.99     3.02   1.22813  2.6371
 3.10000    5.01     3.03   1.22811  2.6373
 3.15000    5.02     3.02   1.22952  2.6373
 3.20000    5.03     3.01   1.22885  2.6373
 3.25000    5.04     3.02   1.22965  2.6374
 3.30000    5.05     3.04   1.22958  2.6374
 3.35000    5.07     3.03   1.22932  2.6376
 3.40000    5.09     3.03   1.22967  2.6378
 3.45000    5.10     3.03   1.22959  2.6379
 3.50000    5.12     3.03   1.23044  2.6380
 3.55000    5.13     3.02   1.23008  2.6381
 3.60000    5.14     3.04   1.23072  2.6381
 3.65000    5.15     3.03   1.23050  2.6384
 3.70000    5.16     3.02   1.23060  2.6382
 3.75000    5.17     3.04   1.23098  2.6383
 3.80000    5.18     3.02   1.23140  2.6383
 3.85000    5.19     3.02   1.23151  2.6385
 3.90000    5.20     3.04   1.23069  2.6390
 3.95000    5.20     3.02   1.23152  2.6389
 4.00000    5.21     3.02   1.23148  2.6390
 4.00000    5.21     3.03   1.23192  2.6390
 3.95000    5.23     3.02   1.23156  2.6391
 3.90000    5.23     3.02   1.23169  2.6388
 3.85000    5.24     3.02   1.23187  2.6386
 3.80000    5.24     3.02   1.23190  2.6384
 3.75000    5.25     3.05   1.23241  2.6382
 3.70000    5.27     3.03   1.23242  2.6382
 3.65000    5.28     3.04   1.23236  2.6380
 3.60000    5.29     3.04   1.23259  2.6379
 3.55000    5.31     3.04   1.23284  2.6376
 3.50000    5.33     3.06   1.23313  2.6374
 3.45000    5.34     3.05   1.23389  2.6374
 3.40000    5.36     3.06   1.23340  2.6373
 3.35000    5.38     3.05   1.23423  2.6370
 3.30000    5.40     3.05   1.23414  2.6369
 3.25000    5.42     3.08   1.23499  2.6369
 3.20000    5.44     3.05   1.23495  2.6369
 3.15000    5.46     3.07   1.23521  2.6367
 3.10000    5.47     3.05   1.23518  2.6365
 3.05000    5.49     3.07   1.23410  2.6363
 3.00000    5.51     3.07   1.23582  2.6362
 2.95000    5.52     3.05   1.23555  2.6363
 2.90000    5.53     3.06   1.23624  2.6359
 2.85000    5.53     3.04   1.23589  2.6357
 2.80000    5.54     3.04   1.23570  2.6357
 2.75000    5.55     3.04   1.23603  2.6357
 2.70000    5.56     3.05   1.23582  2.6354
 2.65000    5.56     3.03   1.23312  2.6358
 2.60000    5.56     3.03   1.23558  2.6353
 2.55000    5.56     3.03   1.23565  2.6351
 2.50000    5.57     3.03   1.23522  2.6348
 2.45000    5.57     3.05   1.23586  2.6345
 2.40000    5.58     3.01   1.23628  2.6344
 2.35000    5.58     3.02   1.23541  2.6341
 2.30000    5.59     3.03   1.23537  2.6341
 2.25000    5.60     3.04   1.23607  2.6341
 2.20000    5.61     3.04   1.23769  2.6342
 2.15000    5.62     3.02   1.23826  2.6342
 2.10000    5.62     3.02   1.23773  2.6343
 2.05000    5.63     3.01   1.23778  2.6340
 2.00000    5.64     3.03   1.23688  2.6343
 1.95000    5.65     3.01   1.23728  2.6335
 1.90000    5.65     3.01   1.23733  2.6331
 1.85000    5.65     3.01   1.23627  2.6334
 1.80000    5.65     3.01   1.23601  2.6333
 1.75000    5.65     3.02   1.23497  2.6333
 1.70000    5.65     3.01   1.23414  2.6331
 1.65000    5.64     3.00   1.23309  2.6330
 1.60000    5.63     3.01   1.23124  2.6329
 1.55000    5.61     3.00   1.22865  2.6327
 1.50000    5.59     3.01   1.22609  2.6330
 1.45000    5.58     3.02   1.22375  2.6337
 1.40000    5.56     2.99   1.22282  2.6341
 1.35000    5.54     3.00   1.22396  2.6341
 1.30000    5.53     3.00   1.22591  2.6346
 1.25000    5.51     3.00   1.22804  2.6349
 1.20000    5.50     3.01   1.23084  2.6348
 1.15000    5.49     3.00   1.23256  2.6349
 1.10000    5.48     2.99   1.23379  2.6351
 1.05000    5.47     3.00   1.23587  2.6349
 1.00000    5.47     2.99   1.23695  2.6349
 0.95000    5.46     3.01   1.23858  2.6347
 0.90000    5.46     2.99   1.23935  2.6347
 0.85000    5.45     3.00   1.24068  2.6346
 0.80000    5.44     3.00   1.24106  2.6346
 0.75000    5.42     3.00   1.24199  2.6346
 0.70000    5.42     3.00   1.24277  2.6348
 0.65000    5.41     2.99   1.24350  2.6343
 0.60000    5.40     2.99   1.24355  2.6343
 0.55000    5.38     3.00   1.24419  2.6343
 0.50000    5.38     3.02   1.24488  2.6349
 0.45000    5.38     3.00   1.24552  2.6343
 0.40000    5.37     2.99   1.24526  2.6342
 0.35000    5.35     2.99   1.24618  2.6343
 0.30000    5.35     3.00   1.24690  2.6339
 0.25000    5.34     3.01   1.24627  2.6339
 0.20000    5.34     3.00   1.24650  2.6341
 0.15000    5.33     2.99   1.24662  2.6341
 0.10000    5.33     2.98   1.24705  2.6339
 0.05000    5.32     3.00   1.24715  2.6342
-0.00000    5.31     3.00   1.24686  2.6341
