 Field[T] Tsmpl[K] Tcntr[K] Signal   Mirror[MM]
 0.00000    4.80     2.98   0.83123  3.2891
 0.05000    4.78     2.97   0.83057  3.2891
 0.10000    4.78     2.96   0.83027  3.2898
 0.15000    4.78     2.97   0.82954  3.2904
 0.20000    4.77     2.98   0.82989  3.2895
 0.25000    4.77     2.97   0.82921  3.2892
 0.30000    4.76     2.98   0.82941  3.2892
 0.35000    4.76     2.98   0.82837  3.2893
 0.40000    4.76     2.97   0.82775  3.2899
 0.45000    4.76     2.98   0.82827  3.2893
 0.50000    4.76     2.97   0.82607  3.2894
 0.55000    4.76     2.97   0.82730  3.2897
 0.60000    4.76     2.97   0.82665  3.2892
 0.65000    4.76     2.98   0.82651  3.2889
 0.70000    4.76     2.98   0.82531  3.2889
 0.75000    4.76     2.99   0.82457  3.2885
 0.80000    4.76     2.98   0.82240  3.2892
 0.85000    4.76     2.97   0.82328  3.2886
 0.90000    4.75     2.97   0.82237  3.2885
 0.95000    4.74     2.94   0.82151  3.2886
 1.00000    4.73     2.95   0.82107  3.2882
 1.05000    4.72     2.97   0.82101  3.2879
 1.10000    4.72     2.95   0.82138  3.2877
 1.15000    4.71     2.96   0.82308  3.2877
 1.20000    4.71     2.96   0.82375  3.2876
 1.25000    4.71     2.96   0.82481  3.2876
 1.30000    4.72     2.95   0.82501  3.2875
 1.35000    4.72     2.97   0.82515  3.2878
 1.40000    4.73     2.93   0.82541  3.2880
 1.45000    4.71     2.94   0.82549  3.2880
 1.50000    4.71     2.93   0.82505  3.2882
 1.55000    4.70     2.90   0.82451  3.2884
 1.60000    4.67     2.91   0.82459  3.2883
 1.65000    4.65     2.92   0.82416  3.2885
 1.70000    4.64     2.94   0.82486  3.2885
 1.75000    4.64     2.94   0.82470  3.2886
 1.80000    4.64     2.95   0.82472  3.2884
 1.85000    4.64     2.97   0.82473  3.2886
 1.90000    4.64     2.97   0.82477  3.2890
 1.95000    4.64     2.96   0.82469  3.2890
 2.00000    4.63     2.98   0.82464  3.2891
 2.05000    4.63     2.97   0.82478  3.2891
 2.10000    4.62     2.98   0.82467  3.2893
 2.15000    4.62     2.99   0.82459  3.2897
 2.20000    4.62     2.98   0.82422  3.2895
 2.25000    4.62     2.97   0.82491  3.2896
 2.30000    4.63     3.00   0.82507  3.2898
 2.35000    4.63     2.99   0.82488  3.2901
 2.40000    4.63     2.99   0.82187  3.2909
 2.45000    4.64     3.00   0.82473  3.2904
 2.50000    4.65     2.99   0.82531  3.2903
 2.55000    4.66     2.99   0.82516  3.2904
 2.60000    4.67     3.01   0.82542  3.2911
 2.65000    4.69     3.00   0.82526  3.2911
 2.70000    4.70     3.00   0.82559  3.2906
 2.75000    4.70     3.00   0.82562  3.2906
 2.80000    4.72     3.02   0.82556  3.2912
 2.85000    4.73     3.02   0.82554  3.2910
 2.90000    4.75     3.02   0.82607  3.2911
 2.95000    4.76     3.03   0.82628  3.2913
 3.00000    4.78     3.02   0.82680  3.2917
 3.05000    4.79     3.03   0.82676  3.2915
 3.10000    4.80     3.05   0.82689  3.2920
 3.15000    4.82     3.04   0.82704  3.2919
 3.20000    4.84     3.04   0.82613  3.2921
 3.25000    4.85     3.04   0.82658  3.2934
 3.30000    4.86     3.06   0.82695  3.2922
 3.35000    4.87     3.05   0.82755  3.2920
 3.40000    4.88     3.05   0.82757  3.2920
 3.45000    4.89     3.06   0.82767  3.2922
 3.50000    4.89     3.05   0.82728  3.2926
 3.55000    4.89     3.04   0.82713  3.2929
 3.60000    4.89     3.04   0.82711  3.2931
 3.65000    4.89     3.04   0.82704  3.2929
 3.70000    4.88     3.06   0.82709  3.2929
 3.75000    4.89     3.05   0.82694  3.2932
 3.80000    4.89     3.05   0.82714  3.2933
 3.85000    4.89     3.05   0.82698  3.2934
 3.90000    4.89     3.05   0.82689  3.2934
 3.95000    4.89     3.05   0.82678  3.2936
 4.00000    4.89     3.06   0.82673  3.2938
 4.00000    4.90     3.04   0.82705  3.2939
 3.95000    4.90     3.04   0.82704  3.2938
 3.90000    4.91     3.07   0.82755  3.2937
 3.85000    4.92     3.06   0.82770  3.2935
 3.80000    4.93     3.07   0.82776  3.2939
 3.75000    4.95     3.08   0.82787  3.2937
 3.70000    4.96     3.08   0.82851  3.2933
 3.65000    4.98     3.09   0.82878  3.2931
 3.60000    4.99     3.10   0.82941  3.2932
 3.55000    5.01     3.08   0.82955  3.2929
 3.50000    5.02     3.08   0.82965  3.2928
 3.45000    5.03     3.08   0.82998  3.2927
 3.40000    5.05     3.09   0.83031  3.2923
 3.35000    5.05     3.09   0.83023  3.2927
 3.30000    5.07     3.08   0.83052  3.2923
 3.25000    5.08     3.09   0.83081  3.2923
 3.20000    5.09     3.07   0.83085  3.2918
 3.15000    5.09     3.07   0.83085  3.2919
 3.10000    5.10     3.10   0.83079  3.2918
 3.05000    5.11     3.07   0.83096  3.2917
 3.00000    5.11     3.07   0.83128  3.2914
 2.95000    5.12     3.06   0.83139  3.2914
 2.90000    5.12     3.06   0.83107  3.2913
 2.85000    5.12     3.06   0.83163  3.2911
 2.80000    5.13     3.05   0.83149  3.2910
 2.75000    5.14     3.07   0.83165  3.2909
 2.70000    5.15     3.07   0.83203  3.2909
 2.65000    5.16     3.06   0.83215  3.2906
 2.60000    5.17     3.05   0.83246  3.2902
 2.55000    5.17     3.05   0.83210  3.2904
 2.50000    5.17     3.04   0.83198  3.2903
 2.45000    5.17     3.03   0.83239  3.2901
 2.40000    5.18     3.04   0.83251  3.2899
 2.35000    5.18     3.03   0.83203  3.2900
 2.30000    5.18     3.03   0.83256  3.2897
 2.25000    5.19     3.05   0.83275  3.2898
 2.20000    5.20     3.04   0.83284  3.2896
 2.15000    5.21     3.05   0.83284  3.2897
 2.10000    5.22     3.02   0.83286  3.2895
 2.05000    5.22     3.02   0.83311  3.2895
 2.00000    5.22     3.03   0.83330  3.2893
 1.95000    5.23     3.02   0.83308  3.2894
 1.90000    5.23     3.03   0.83314  3.2894
 1.85000    5.24     3.04   0.83349  3.2892
 1.80000    5.25     3.02   0.83330  3.2893
 1.75000    5.25     3.01   0.83354  3.2890
 1.70000    5.26     3.02   0.83313  3.2891
 1.65000    5.26     3.02   0.83357  3.2890
 1.60000    5.26     3.01   0.83337  3.2886
 1.55000    5.27     3.01   0.83363  3.2886
 1.50000    5.27     3.01   0.83345  3.2886
 1.45000    5.28     3.00   0.83333  3.2886
 1.40000    5.28     3.02   0.83341  3.2883
 1.35000    5.29     3.01   0.83314  3.2884
 1.30000    5.29     3.01   0.83295  3.2882
 1.25000    5.29     3.00   0.83305  3.2880
 1.20000    5.30     3.01   0.83269  3.2882
 1.15000    5.30     2.99   0.83147  3.2880
 1.10000    5.30     3.00   0.83037  3.2882
 1.05000    5.30     3.00   0.82963  3.2888
 1.00000    5.31     3.00   0.82973  3.2890
 0.95000    5.31     3.00   0.82991  3.2890
 0.90000    5.30     3.00   0.83050  3.2891
 0.85000    5.30     3.00   0.83151  3.2893
 0.80000    5.29     3.00   0.83234  3.2895
 0.75000    5.29     3.00   0.83286  3.2895
 0.70000    5.29     3.01   0.83349  3.2892
 0.65000    5.29     3.00   0.83390  3.2892
 0.60000    5.28     2.99   0.83415  3.2893
 0.55000    5.27     3.00   0.83463  3.2894
 0.50000    5.26     3.01   0.83482  3.2895
 0.45000    5.25     2.99   0.83543  3.2894
 0.40000    5.24     3.00   0.83555  3.2893
 0.35000    5.23     3.00   0.83575  3.2894
 0.30000    5.23     2.99   0.83608  3.2894
 0.25000    5.23     3.01   0.83641  3.2895
 0.20000    5.23     3.00   0.83686  3.2895
 0.15000    5.23     2.99   0.83723  3.2896
 0.10000    5.23     3.00   0.83745  3.2896
 0.05000    5.24     2.99   0.83767  3.2896
-0.00000    5.24     3.00   0.83818  3.2894
