 Field[T] Tsmpl[K] Tcntr[K] Signal Mirror[MM] RefSignal
 0.00000    4.84     2.87   1.23738  3.3369   1.01917
 0.05000    4.79     2.87   1.23712  3.3373   1.01904
 0.10000    4.76     2.87   1.23774  3.3375   1.01921
 0.15000    4.73     2.88   1.23770  3.3375   1.01741
 0.20000    4.70     2.88   1.23775  3.3376   1.01824
 0.25000    4.68     2.87   1.23736  3.3377   1.01872
 0.30000    4.69     2.88   1.23800  3.3378   1.01838
 0.35000    4.64     2.86   1.23768  3.3379   1.01795
 0.40000    4.61     2.86   1.23763  3.3379   1.01772
 0.45000    4.59     2.88   1.23764  3.3380   1.01891
 0.50000    4.58     2.87   1.23760  3.3381   1.01813
 0.55000    4.56     2.87   1.23773  3.3384   1.01604
 0.60000    4.55     2.87   1.23710  3.3384   1.01951
 0.65000    4.53     2.88   1.23744  3.3381   1.01759
 0.70000    4.53     2.89   1.23717  3.3384   1.01744
 0.75000    4.51     2.88   1.23666  3.3386   1.01745
 0.80000    4.50     2.87   1.23597  3.3386   1.01655
 0.85000    4.49     2.88   1.23540  3.3388   1.01552
 0.90000    4.48     2.88   1.23500  3.3387   1.01608
 0.95000    4.47     2.89   1.23461  3.3387   1.01623
 1.00000    4.46     2.89   1.23399  3.3388   1.01609
 1.05000    4.45     2.88   1.23333  3.3389   1.01559
 1.10000    4.44     2.89   1.23283  3.3386   1.01522
 1.15000    4.43     2.90   1.23241  3.3387   1.01571
 1.20000    4.43     2.89   1.23194  3.3387   1.01527
 1.25000    4.42     2.90   1.23122  3.3390   1.01600
 1.30000    4.41     2.91   1.23094  3.3390   1.01547
 1.35000    4.41     2.92   1.23008  3.3392   1.01623
 1.40000    4.41     2.91   1.22956  3.3392   1.01459
 1.45000    4.41     2.92   1.22843  3.3392   1.01369
 1.50000    4.40     2.93   1.22772  3.3394   1.01467
 1.55000    4.40     2.94   1.22690  3.3394   1.01574
 1.60000    4.40     2.90   1.22569  3.3393   1.01491
 1.65000    4.39     2.92   1.22470  3.3392   1.01465
 1.70000    4.38     2.92   1.22406  3.3393   1.01485
 1.75000    4.37     2.94   1.22272  3.3393   1.01493
 1.80000    4.37     2.93   1.22177  3.3393   1.01562
 1.85000    4.35     2.94   1.22074  3.3391   1.01381
 1.90000    4.34     2.95   1.21955  3.3391   1.01381
 1.95000    4.34     2.94   1.21804  3.3391   1.01448
 2.00000    4.34     2.96   1.21736  3.3392   1.01483
 2.05000    4.34     2.96   1.21653  3.3391   1.01311
 2.10000    4.34     2.98   1.21588  3.3391   1.01434
 2.15000    4.35     2.96   1.21534  3.3388   1.01502
 2.20000    4.34     2.97   1.21511  3.3388   1.01332
 2.25000    4.35     2.98   1.21495  3.3387   1.01384
 2.30000    4.36     2.97   1.21480  3.3387   1.01546
 2.35000    4.37     2.97   1.21458  3.3386   1.01442
 2.40000    4.38     2.98   1.21462  3.3386   1.01355
 2.45000    4.39     2.99   1.21439  3.3383   1.01518
 2.50000    4.41     2.99   1.21469  3.3381   1.01479
 2.55000    4.42     2.98   1.21452  3.3382   1.01329
 2.60000    4.42     2.99   1.21431  3.3383   1.01449
 2.65000    4.43     2.99   1.21426  3.3381   1.01323
 2.70000    4.43     2.99   1.21470  3.3378   1.01416
 2.75000    4.44     3.01   1.21422  3.3378   1.01349
 2.80000    4.45     2.99   1.21430  3.3379   1.01414
 2.85000    4.45     2.99   1.21425  3.3377   1.01392
 2.90000    4.45     3.01   1.21433  3.3379   1.01331
 2.95000    4.46     3.00   1.21434  3.3379   1.01375
 3.00000    4.47     3.00   1.21427  3.3379   1.01246
 3.05000    4.47     3.00   1.21410  3.3380   1.01261
 3.10000    4.47     3.00   1.21407  3.3376   1.01302
 3.15000    4.49     3.02   1.21439  3.3377   1.01324
 3.20000    4.50     3.01   1.21365  3.3378   1.01271
 3.25000    4.51     3.02   1.21434  3.3378   1.01305
 3.30000    4.52     3.01   1.21432  3.3378   1.01314
 3.35000    4.53     3.02   1.21466  3.3376   1.01258
 3.40000    4.54     3.03   1.21446  3.3378   1.01347
 3.45000    4.56     3.03   1.21464  3.3379   1.01399
 3.50000    4.58     3.03   1.21402  3.3381   1.01278
 3.55000    4.60     3.03   1.21416  3.3379   1.01415
 3.60000    4.62     3.02   1.21434  3.3377   1.01365
 3.65000    4.63     3.04   1.21462  3.3377   1.01250
 3.70000    4.65     3.03   1.21449  3.3378   1.01403
 3.75000    4.66     3.04   1.21430  3.3379   1.01271
 3.80000    4.68     3.03   1.21447  3.3378   1.01348
 3.85000    4.69     3.03   1.21435  3.3374   1.01355
 3.90000    4.70     3.03   1.21452  3.3376   1.01241
 3.95000    4.71     3.05   1.21473  3.3377   1.01241
 4.00000    4.73     3.03   1.21439  3.3377   1.01208
 4.05000    4.74     3.03   1.21434  3.3377   1.01262
 4.10000    4.75     3.03   1.21453  3.3377   1.01238
 4.15000    4.75     3.03   1.21423  3.3379   1.01214
 4.20000    4.76     3.02   1.21434  3.3380   1.01269
 4.25000    4.77     3.04   1.21414  3.3378   1.01228
 4.30000    4.77     3.02   1.21421  3.3380   1.01055
 4.35000    4.77     3.02   1.21378  3.3380   1.01029
 4.40000    4.78     3.02   1.21368  3.3378   1.01171
 4.45000    4.78     3.02   1.21362  3.3378   1.01097
 4.50000    4.80     3.04   1.21353  3.3378   1.01129
 4.55000    4.80     3.02   1.21408  3.3378   1.01190
 4.60000    4.80     3.02   1.21416  3.3379   1.01263
 4.65000    4.81     3.02   1.21406  3.3379   1.01125
 4.70000    4.82     3.04   1.21391  3.3379   1.01149
 4.75000    4.82     3.02   1.21380  3.3379   1.01019
 4.80000    4.84     3.02   1.21364  3.3377   1.01192
 4.85000    4.84     3.01   1.21367  3.3377   1.01122
 4.90000    4.86     3.01   1.21364  3.3376   1.01111
 4.95000    4.87     3.02   1.21337  3.3378   1.01101
 5.00000    4.88     3.01   1.21325  3.3380   1.01080
