 Field[T] Tsmpl[K] Tcntr[K] Signal Mirror[MM] RefSignal
 0.00000    4.57     2.98   0.31796  3.3023   0.18741
 0.06250    4.56     2.97   0.31848  3.3024   0.18798
 0.12500    4.55     2.98   0.31863  3.3027   0.18776
 0.18750    4.55     2.98   0.31879  3.3026   0.18809
 0.25000    4.55     2.98   0.31887  3.3028   0.18849
 0.31250    4.55     2.98   0.31927  3.3031   0.19025
 0.37500    4.55     2.98   0.31944  3.3032   0.18873
 0.43750    4.55     2.99   0.31958  3.3031   0.18838
 0.50000    4.55     2.98   0.31918  3.3033   0.18829
 0.56250    4.55     3.00   0.31908  3.3036   0.18920
 0.62500    4.55     2.97   0.31907  3.3038   0.18741
 0.68750    4.55     2.98   0.31915  3.3037   0.18819
 0.75000    4.55     2.97   0.31931  3.3035   0.18733
 0.81250    4.55     2.97   0.31958  3.3040   0.18973
 0.87500    4.54     2.97   0.31954  3.3040   0.18849
 0.93750    4.54     2.97   0.31982  3.3039   0.18965
 1.00000    4.53     2.96   0.31990  3.3041   0.18797
 1.06250    4.53     2.97   0.32014  3.3042   0.18775
 1.12500    4.52     2.96   0.32042  3.3043   0.18829
 1.18750    4.51     2.96   0.32045  3.3044   0.18904
 1.25000    4.50     2.96   0.32108  3.3044   0.18949
 1.31250    4.50     2.97   0.32088  3.3046   0.18991
 1.37500    4.50     2.95   0.32072  3.3045   0.18963
 1.43750    4.49     2.96   0.32089  3.3047   0.18871
 1.50000    4.47     2.94   0.32129  3.3049   0.18902
 1.56250    4.45     2.97   0.32078  3.3049   0.18975
 1.62500    4.45     2.95   0.32043  3.3050   0.18722
 1.68750    4.43     2.95   0.32022  3.3051   0.18739
 1.75000    4.43     2.96   0.32026  3.3051   0.18845
 1.81250    4.43     2.98   0.32014  3.3055   0.18718
 1.87500    4.43     2.96   0.32004  3.3055   0.18843
 1.93750    4.44     2.97   0.32002  3.3055   0.18948
 2.00000    4.45     2.98   0.31976  3.3058   0.18682
 2.06250    4.46     2.98   0.31949  3.3057   0.18751
 2.12500    4.48     2.98   0.31941  3.3057   0.18867
 2.18750    4.49     3.00   0.31908  3.3054   0.18854
 2.25000    4.51     3.00   0.31918  3.3059   0.18998
 2.31250    4.53     3.00   0.31931  3.3058   0.18906
 2.37500    4.54     3.01   0.31927  3.3060   0.18951
 2.43750    4.56     3.00   0.31883  3.3060   0.18934
 2.50000    4.57     3.00   0.31856  3.3059   0.18941
 2.56250    4.57     3.00   0.31824  3.3059   0.19022
 2.62500    4.58     3.01   0.31802  3.3058   0.18755
 2.68750    4.58     3.00   0.31745  3.3057   0.18964
 2.75000    4.58     3.00   0.31713  3.3057   0.18890
 2.81250    4.59     3.00   0.31705  3.3057   0.18963
 2.87500    4.59     3.01   0.31671  3.3055   0.18844
 2.93750    4.59     3.01   0.31636  3.3055   0.19018
 3.00000    4.59     3.02   0.31624  3.3053   0.18903
 3.06250    4.61     3.03   0.31616  3.3054   0.18924
 3.12500    4.62     3.03   0.31589  3.3052   0.19090
 3.18750    4.63     3.04   0.31572  3.3054   0.19000
 3.25000    4.65     3.04   0.31566  3.3054   0.19010
 3.31250    4.66     3.05   0.31552  3.3052   0.18800
 3.37500    4.68     3.05   0.31548  3.3050   0.18740
 3.43750    4.70     3.06   0.31530  3.3048   0.18804
 3.50000    4.70     3.04   0.31519  3.3050   0.18894
 3.56250    4.71     3.03   0.31563  3.3050   0.18810
 3.62500    4.71     3.03   0.31558  3.3052   0.18889
 3.68750    4.71     3.03   0.31558  3.3053   0.18780
 3.75000    4.71     3.02   0.31556  3.3054   0.18796
 3.81250    4.72     3.01   0.31530  3.3047   0.18736
 3.87500    4.72     3.02   0.31542  3.3048   0.18828
 3.93750    4.73     3.03   0.31562  3.3048   0.19171
 4.00000    4.74     3.03   0.31557  3.3052   0.19071
 4.06250    4.75     3.04   0.31575  3.3052   0.18992
 4.12500    4.77     3.04   0.31538  3.3051   0.18978
 4.18750    4.78     3.03   0.31548  3.3049   0.19032
 4.25000    4.79     3.03   0.31553  3.3048   0.19044
 4.31250    4.80     3.04   0.31571  3.3048   0.18918
 4.37500    4.81     3.04   0.31553  3.3049   0.18944
 4.43750    4.82     3.03   0.31561  3.3051   0.19135
 4.50000    4.83     3.03   0.31506  3.3048   0.18971
 4.56250    4.84     3.04   0.31441  3.3048   0.18840
 4.62500    4.85     3.02   0.31446  3.3051   0.18946
 4.68750    4.86     3.02   0.31449  3.3051   0.18987
 4.75000    4.87     3.02   0.31446  3.3044   0.18991
 4.81250    4.88     3.02   0.31458  3.3044   0.19036
 4.87500    4.89     3.01   0.31458  3.3044   0.19101
 4.93750    4.90     3.02   0.31446  3.3048   0.19008
 5.00000    4.91     3.02   0.31457  3.3054   0.18958
