 Field[T] Tsmpl[K] Tcntr[K] Signal
 0.00000    4.96     2.88   0.92320
 0.05000    4.97     2.91   0.92330
 0.10000    4.98     2.91   0.92860
 0.15000    5.00     2.92   0.93180
 0.20000    5.01     2.91   0.93230
 0.25000    5.01     2.93   0.93360
 0.30000    5.02     2.95   0.93370
 0.35000    5.04     2.94   0.93540
 0.40000    5.05     2.94   0.93700
 0.45000    5.06     2.94   0.93570
 0.50000    5.07     2.95   0.93900
 0.55000    5.08     2.96   0.94170
 0.60000    5.09     2.95   0.94410
 0.65000    5.09     2.95   0.94350
 0.70000    5.10     2.96   0.94760
 0.75000    5.11     2.95   0.94800
 0.80000    5.11     2.95   0.95010
 0.85000    5.11     2.96   0.94880
 0.90000    5.12     2.95   0.94690
 0.95000    5.12     2.96   0.94740
 1.00000    5.12     2.96   0.95230
 1.05000    5.12     2.95   0.95290
 1.10000    5.12     2.95   0.95260
 1.15000    5.11     2.95   0.95570
 1.20000    5.10     2.95   0.95510
 1.25000    5.09     2.95   0.95650
 1.30000    5.08     2.94   0.95780
 1.35000    5.07     2.95   0.96340
 1.40000    5.07     2.94   0.96580
 1.45000    5.05     2.95   0.96810
 1.50000    5.05     2.95   0.97260
 1.55000    5.05     2.95   0.97460
 1.60000    5.04     2.95   0.97250
 1.65000    5.03     2.95   0.97170
 1.70000    5.02     2.96   0.97160
 1.75000    5.01     2.96   0.97280
 1.80000    5.00     2.96   0.97360
 1.85000    4.99     2.96   0.97110
 1.90000    4.98     2.96   0.97220
 1.95000    4.98     2.96   0.97320
 2.00000    4.96     2.98   0.97240
 2.05000    4.96     2.97   0.97390
 2.10000    4.95     2.96   0.97480
 2.15000    4.95     2.99   0.97500
 2.20000    4.95     2.98   0.97510
 2.25000    4.95     2.98   0.97510
 2.30000    4.95     2.98   0.97720
 2.35000    4.96     2.99   0.97880
 2.40000    4.97     3.01   0.98560
 2.45000    4.97     2.99   0.98630
 2.50000    4.97     3.00   0.98390
 2.55000    4.98     3.00   0.98110
 2.60000    4.98     2.99   0.98120
 2.65000    4.99     3.00   0.98160
 2.70000    4.99     3.00   0.97990
 2.75000    5.00     3.00   0.98030
 2.80000    5.00     3.02   0.97870
 2.85000    5.00     2.99   0.98080
 2.90000    5.00     3.00   0.97810
 2.95000    4.98     3.00   0.98120
 3.00000    4.98     3.00   0.98010
 3.05000    4.96     3.00   0.98440
 3.10000    4.95     3.00   0.98250
 3.15000    4.94     2.99   0.98260
 3.20000    4.93     3.01   0.98510
 3.25000    4.93     2.99   0.98720
 3.30000    4.91     2.99   0.99000
 3.35000    4.91     2.99   0.98670
 3.40000    4.91     2.99   0.98930
 3.45000    4.91     3.00   0.99060
 3.50000    4.91     3.00   0.99330
 3.55000    4.92     3.00   0.99650
 3.60000    4.93     3.00   1.00080
 3.65000    4.93     3.01   0.99410
 3.70000    4.94     3.01   0.99320
 3.75000    4.95     3.01   0.99150
 3.80000    4.96     3.00   0.99560
 3.85000    4.97     3.01   0.99320
 3.90000    4.98     3.00   0.99320
 3.95000    4.98     3.01   0.99330
 4.00000    4.99     3.02   0.99380
 4.00000    5.00     3.01   0.99170
 3.95000    5.01     3.00   0.98930
 3.90000    5.03     3.00   0.98820
 3.85000    5.05     3.02   0.98680
 3.80000    5.07     3.01   0.98510
 3.75000    5.10     3.02   0.98460
 3.70000    5.13     3.01   0.98310
 3.65000    5.16     3.02   0.98120
 3.60000    5.19     3.02   0.98230
 3.55000    5.22     3.04   0.98240
 3.50000    5.25     3.02   0.98090
 3.45000    5.27     3.02   0.97990
 3.40000    5.29     3.03   0.97970
 3.35000    5.31     3.02   0.98060
 3.30000    5.32     3.04   0.97810
 3.25000    5.33     3.03   0.97600
 3.20000    5.33     3.04   0.97600
 3.15000    5.34     3.04   0.97310
 3.10000    5.36     3.05   0.97550
 3.05000    5.37     3.04   0.97570
 3.00000    5.37     3.04   0.97320
 2.95000    5.38     3.04   0.97360
 2.90000    5.39     3.06   0.97210
 2.85000    5.40     3.04   0.97120
 2.80000    5.41     3.04   0.97030
 2.75000    5.41     3.04   0.97100
 2.70000    5.42     3.03   0.96970
 2.65000    5.42     3.04   0.96950
 2.60000    5.42     3.05   0.96960
 2.55000    5.43     3.04   0.97040
 2.50000    5.43     3.04   0.97270
 2.45000    5.44     3.03   0.97690
 2.40000    5.44     3.03   0.97250
 2.35000    5.44     3.03   0.97030
 2.30000    5.45     3.03   0.96840
 2.25000    5.45     3.04   0.96310
 2.20000    5.46     3.03   0.96070
 2.15000    5.47     3.02   0.95960
 2.10000    5.47     3.01   0.95940
 2.05000    5.47     3.01   0.95970
 2.00000    5.46     3.02   0.95920
 1.95000    5.45     3.02   0.95790
 1.90000    5.44     3.03   0.95600
 1.85000    5.44     3.01   0.95440
 1.80000    5.44     3.01   0.95330
 1.75000    5.44     3.01   0.95400
 1.70000    5.44     3.01   0.95360
 1.65000    5.44     3.02   0.95300
 1.60000    5.44     3.00   0.95150
 1.55000    5.45     3.00   0.95060
 1.50000    5.45     3.00   0.94980
 1.45000    5.46     3.02   0.94680
 1.40000    5.47     3.00   0.94730
 1.35000    5.46     3.01   0.94610
 1.30000    5.46     3.01   0.94320
 1.25000    5.46     3.02   0.94440
 1.20000    5.46     3.00   0.94150
 1.15000    5.45     3.00   0.94200
 1.10000    5.43     3.00   0.94160
 1.05000    5.43     3.00   0.94040
 1.00000    5.41     3.01   0.93930
 0.95000    5.41     3.02   0.94110
 0.90000    5.40     3.00   0.93760
 0.85000    5.39     3.00   0.93660
 0.80000    5.39     3.00   0.93410
 0.75000    5.38     3.00   0.93620
 0.70000    5.37     3.00   0.93190
 0.65000    5.36     3.00   0.93130
 0.60000    5.36     2.99   0.93370
 0.55000    5.34     3.00   0.93210
 0.50000    5.34     3.00   0.93190
 0.45000    5.34     3.02   0.93420
 0.40000    5.34     2.99   0.93340
 0.35000    5.33     2.99   0.93020
 0.30000    5.32     2.99   0.92650
 0.25000    5.31     2.99   0.92380
 0.20000    5.30     3.01   0.92230
 0.15000    5.30     3.00   0.92260
 0.10000    5.28     3.00   0.92260
 0.05000    5.28     2.99   0.92160
-0.00000    5.27     3.00   0.91590
