 Field[T] Tsmpl[K] Tcntr[K] Signal
 0.00000    5.04     2.95   6.11360
 0.05000    5.03     2.97   6.12460
 0.10000    5.03     2.96   6.12990
 0.15000    5.03     2.96   6.13490
 0.20000    5.02     2.96   6.13370
 0.25000    5.02     2.96   6.12450
 0.30000    5.01     2.97   6.11900
 0.35000    5.01     2.97   6.11870
 0.40000    5.00     2.97   6.11550
 0.45000    5.00     2.98   6.11400
 0.50000    4.99     2.96   6.11690
 0.55000    4.98     2.96   6.11250
 0.60000    4.98     2.97   6.11120
 0.65000    4.98     2.97   6.11320
 0.70000    4.97     2.97   6.10940
 0.75000    4.97     2.99   6.10670
 0.80000    4.97     2.97   6.10370
 0.85000    4.96     2.97   6.10440
 0.90000    4.96     2.97   6.10590
 0.95000    4.95     2.97   6.10130
 1.00000    4.95     2.98   6.10510
 1.05000    4.94     2.96   6.10020
 1.10000    4.93     2.97   6.09720
 1.15000    4.93     2.94   6.10160
 1.20000    4.92     2.97   6.09770
 1.25000    4.91     2.95   6.09420
 1.30000    4.91     2.95   6.09290
 1.35000    4.90     2.96   6.08920
 1.40000    4.90     2.98   6.08540
 1.45000    4.91     2.96   6.08350
 1.50000    4.91     2.97   6.07990
 1.55000    4.92     2.97   6.07470
 1.60000    4.92     2.97   6.06540
 1.65000    4.93     2.96   6.06030
 1.70000    4.93     2.97   6.05890
 1.75000    4.94     2.97   6.05580
 1.80000    4.94     2.97   6.05580
 1.85000    4.94     2.98   6.05630
 1.90000    4.94     2.97   6.05790
 1.95000    4.95     2.97   6.05540
 2.00000    4.95     2.97   6.06200
 2.05000    4.95     2.99   6.05520
 2.10000    4.95     2.98   6.04830
 2.15000    4.95     2.98   6.03580
 2.20000    4.95     2.98   6.03490
 2.25000    4.95     2.98   6.03090
 2.30000    4.95     2.98   6.02730
 2.35000    4.94     2.99   6.02680
 2.40000    4.93     2.99   6.02560
 2.45000    4.92     2.99   6.02720
 2.50000    4.91     2.99   6.03070
 2.55000    4.89     2.99   6.03260
 2.60000    4.87     2.99   6.03690
 2.65000    4.86     3.00   6.03780
 2.70000    4.86     3.00   6.03590
 2.75000    4.86     3.00   6.03720
 2.80000    4.86     3.00   6.03470
 2.85000    4.86     2.99   6.03660
 2.90000    4.86     3.01   6.04160
 2.95000    4.86     3.01   6.04370
 3.00000    4.86     3.01   6.04680
 3.05000    4.87     3.00   6.04800
 3.10000    4.87     3.02   6.05330
 3.15000    4.87     3.00   6.05480
 3.20000    4.87     3.02   6.05640
 3.25000    4.87     3.01   6.06030
 3.30000    4.89     3.03   6.05920
 3.35000    4.89     3.01   6.06310
 3.40000    4.91     3.01   6.06540
 3.45000    4.92     3.02   6.06920
 3.50000    4.93     3.01   6.06750
 3.55000    4.93     3.03   6.07170
 3.60000    4.95     3.01   6.07520
 3.65000    4.95     3.01   6.07730
 3.70000    4.95     3.01   6.07510
 3.75000    4.96     3.02   6.08070
 3.80000    4.97     3.01   6.08550
 3.85000    4.98     3.01   6.08660
 3.90000    4.99     3.01   6.09500
 3.95000    4.99     3.02   6.09880
 4.00000    5.00     3.00   6.10270
 4.00000    5.00     3.00   6.10340
 3.95000    5.00     3.00   6.10020
 3.90000    5.02     3.01   6.10560
 3.85000    5.03     3.02   6.10370
 3.80000    5.04     3.02   6.11110
 3.75000    5.05     3.04   6.10170
 3.70000    5.07     3.02   6.09610
 3.65000    5.08     3.03   6.09240
 3.60000    5.09     3.02   6.08270
 3.55000    5.09     3.02   6.07890
 3.50000    5.09     3.04   6.07500
 3.45000    5.10     3.03   6.07260
 3.40000    5.10     3.03   6.07000
 3.35000    5.10     3.04   6.06900
 3.30000    5.10     3.03   6.06590
 3.25000    5.10     3.03   6.06970
 3.20000    5.11     3.03   6.06340
 3.15000    5.11     3.04   6.06100
 3.10000    5.11     3.03   6.05660
 3.05000    5.11     3.03   6.05870
 3.00000    5.11     3.03   6.05340
 2.95000    5.11     3.04   6.05910
 2.90000    5.12     3.05   6.05800
 2.85000    5.13     3.04   6.06250
 2.80000    5.13     3.04   6.06170
 2.75000    5.13     3.05   6.06340
 2.70000    5.14     3.03   6.05980
 2.65000    5.13     3.04   6.05970
 2.60000    5.14     3.05   6.06160
 2.55000    5.14     3.04   6.06170
 2.50000    5.14     3.04   6.06340
 2.45000    5.14     3.03   6.06650
 2.40000    5.15     3.03   6.06520
 2.35000    5.15     3.03   6.07020
 2.30000    5.15     3.03   6.07420
 2.25000    5.16     3.03   6.08110
 2.20000    5.16     3.04   6.07690
 2.15000    5.17     3.02   6.06860
 2.10000    5.17     3.04   6.06300
 2.05000    5.18     3.03   6.06210
 2.00000    5.19     3.03   6.06220
 1.95000    5.20     3.04   6.06720
 1.90000    5.21     3.03   6.06560
 1.85000    5.21     3.03   6.06980
 1.80000    5.22     3.04   6.07970
 1.75000    5.23     3.03   6.07360
 1.70000    5.24     3.03   6.08140
 1.65000    5.25     3.02   6.07910
 1.60000    5.26     3.04   6.09120
 1.55000    5.28     3.02   6.09780
 1.50000    5.29     3.02   6.10130
 1.45000    5.30     3.02   6.10720
 1.40000    5.32     3.03   6.11150
 1.35000    5.33     3.01   6.11370
 1.30000    5.34     3.01   6.11340
 1.25000    5.35     3.01   6.11580
 1.20000    5.36     3.02   6.12460
 1.15000    5.37     3.00   6.12350
 1.10000    5.38     3.01   6.12790
 1.05000    5.39     3.00   6.13040
 1.00000    5.40     3.01   6.13210
 0.95000    5.41     3.02   6.13390
 0.90000    5.42     3.02   6.13580
 0.85000    5.43     3.01   6.13450
 0.80000    5.44     3.02   6.14020
 0.75000    5.44     3.00   6.13680
 0.70000    5.45     3.01   6.14090
 0.65000    5.45     3.00   6.14130
 0.60000    5.45     3.01   6.14300
 0.55000    5.43     3.00   6.14310
 0.50000    5.42     3.00   6.14750
 0.45000    5.41     3.01   6.14690
 0.40000    5.38     3.00   6.14760
 0.35000    5.36     2.99   6.14930
 0.30000    5.34     3.01   6.15170
 0.25000    5.32     2.98   6.15320
 0.20000    5.29     2.99   6.15490
 0.15000    5.27     3.01   6.16250
 0.10000    5.26     2.99   6.16500
 0.05000    5.25     3.00   6.15940
-0.00000    5.23     3.00   6.15360
