 Field[T] Tsmpl[K] Tcntr[K] Signal
 0.00000    5.11     2.95   4.56280
 0.05000    5.10     2.96   4.56260
 0.10000    5.09     2.95   4.56140
 0.15000    5.08     2.96   4.56600
 0.20000    5.08     2.95   4.56440
 0.25000    5.07     2.97   4.56830
 0.30000    5.06     2.96   4.56950
 0.35000    5.06     2.98   4.57370
 0.40000    5.05     2.96   4.57280
 0.45000    5.05     2.97   4.57180
 0.50000    5.05     2.98   4.57210
 0.55000    5.05     2.97   4.57050
 0.60000    5.05     2.99   4.57040
 0.65000    5.06     2.98   4.56670
 0.70000    5.05     2.96   4.56670
 0.75000    5.05     2.97   4.56540
 0.80000    5.04     2.96   4.56650
 0.85000    5.03     2.96   4.56470
 0.90000    5.02     2.97   4.56330
 0.95000    5.01     2.98   4.56200
 1.00000    5.00     2.97   4.56080
 1.05000    4.99     2.97   4.55870
 1.10000    4.98     2.95   4.55740
 1.15000    4.97     2.95   4.55600
 1.20000    4.95     2.94   4.55200
 1.25000    4.94     2.94   4.54730
 1.30000    4.93     2.96   4.54290
 1.35000    4.92     2.95   4.53910
 1.40000    4.92     2.95   4.53850
 1.45000    4.91     2.96   4.53490
 1.50000    4.91     2.93   4.53370
 1.55000    4.91     2.95   4.53010
 1.60000    4.91     2.95   4.52920
 1.65000    4.92     2.96   4.52630
 1.70000    4.93     2.95   4.52740
 1.75000    4.94     2.95   4.52540
 1.80000    4.96     2.97   4.52550
 1.85000    4.98     2.96   4.52730
 1.90000    4.99     2.97   4.53010
 1.95000    5.01     2.97   4.52810
 2.00000    5.02     2.97   4.52990
 2.05000    5.03     2.99   4.53040
 2.10000    5.04     2.97   4.52980
 2.15000    5.05     2.97   4.53180
 2.20000    5.05     2.98   4.53460
 2.25000    5.06     2.98   4.53480
 2.30000    5.06     2.98   4.53580
 2.35000    5.07     2.98   4.53680
 2.40000    5.07     2.99   4.53980
 2.45000    5.07     2.99   4.53990
 2.50000    5.08     2.99   4.53890
 2.55000    5.09     3.00   4.54110
 2.60000    5.09     2.99   4.54260
 2.65000    5.10     3.00   4.54280
 2.70000    5.11     2.98   4.54450
 2.75000    5.11     3.01   4.54600
 2.80000    5.12     2.98   4.54750
 2.85000    5.13     3.00   4.55180
 2.90000    5.13     3.01   4.55230
 2.95000    5.15     2.99   4.55660
 3.00000    5.15     3.00   4.55700
 3.05000    5.15     3.00   4.56000
 3.10000    5.16     3.00   4.55860
 3.15000    5.17     2.99   4.56240
 3.20000    5.17     3.01   4.56460
 3.25000    5.17     3.00   4.56530
 3.30000    5.18     3.00   4.56540
 3.35000    5.18     3.00   4.56840
 3.40000    5.19     3.01   4.57250
 3.45000    5.19     3.02   4.57350
 3.50000    5.19     3.01   4.57420
 3.55000    5.19     3.01   4.57610
 3.60000    5.19     3.01   4.57810
 3.65000    5.19     3.01   4.57880
 3.70000    5.19     3.01   4.57810
 3.75000    5.19     3.01   4.58080
 3.80000    5.19     3.01   4.58240
 3.85000    5.19     3.03   4.58280
 3.90000    5.19     3.00   4.58510
 3.95000    5.18     3.00   4.58380
 4.00000    5.18     3.01   4.58540
 4.05000    5.17     3.01   4.58540
 4.10000    5.17     3.01   4.58710
 4.15000    5.16     3.01   4.58580
 4.20000    5.15     3.01   4.58800
 4.25000    5.15     3.01   4.58740
 4.30000    5.14     3.01   4.58840
 4.35000    5.14     3.01   4.58790
 4.40000    5.13     3.01   4.59100
 4.45000    5.13     3.01   4.58820
 4.50000    5.13     3.01   4.58890
 4.55000    5.13     3.01   4.59280
 4.60000    5.14     3.02   4.59120
 4.65000    5.15     3.03   4.59180
 4.70000    5.16     3.01   4.59000
 4.75000    5.16     3.01   4.59220
 4.80000    5.16     3.01   4.59250
 4.85000    5.17     3.01   4.59600
 4.90000    5.17     3.01   4.59390
 4.95000    5.16     3.00   4.59420
 5.00000    5.16     3.03   4.59400
 5.00000    5.16     3.03   4.59720
 4.95000    5.16     3.01   4.59540
 4.90000    5.16     3.02   4.59290
 4.85000    5.16     3.02   4.59380
 4.80000    5.16     3.02   4.59130
 4.75000    5.16     3.04   4.59050
 4.70000    5.18     3.03   4.59080
 4.65000    5.18     3.04   4.59020
 4.60000    5.20     3.04   4.58870
 4.55000    5.20     3.03   4.58930
 4.50000    5.22     3.07   4.59000
 4.45000    5.24     3.05   4.58720
 4.40000    5.25     3.05   4.58840
 4.35000    5.26     3.05   4.58720
 4.30000    5.28     3.06   4.58710
 4.25000    5.29     3.06   4.58760
 4.20000    5.30     3.06   4.58460
 4.15000    5.31     3.06   4.58310
 4.10000    5.32     3.06   4.58280
 4.05000    5.32     3.05   4.58100
 4.00000    5.33     3.05   4.57900
 3.95000    5.34     3.05   4.57610
 3.90000    5.35     3.05   4.58070
 3.85000    5.35     3.05   4.57640
 3.80000    5.36     3.04   4.57590
 3.75000    5.36     3.05   4.57480
 3.70000    5.38     3.04   4.56740
 3.65000    5.38     3.04   4.57140
 3.60000    5.38     3.04   4.56850
 3.55000    5.39     3.04   4.56840
 3.50000    5.39     3.04   4.56630
 3.45000    5.40     3.04   4.56530
 3.40000    5.42     3.06   4.56600
 3.35000    5.43     3.04   4.56550
 3.30000    5.43     3.03   4.56130
 3.25000    5.44     3.05   4.55920
 3.20000    5.45     3.03   4.56170
 3.15000    5.46     3.03   4.56000
 3.10000    5.47     3.04   4.55740
 3.05000    5.48     3.04   4.55870
 3.00000    5.49     3.04   4.55600
 2.95000    5.50     3.03   4.55250
 2.90000    5.51     3.04   4.54920
 2.85000    5.52     3.03   4.54780
 2.80000    5.52     3.04   4.54290
 2.75000    5.53     3.04   4.54510
 2.70000    5.54     3.03   4.54280
 2.65000    5.54     3.02   4.53910
 2.60000    5.55     3.04   4.53800
 2.55000    5.55     3.02   4.53810
 2.50000    5.55     3.02   4.53570
 2.45000    5.56     3.02   4.53450
 2.40000    5.56     3.02   4.53030
 2.35000    5.56     3.01   4.53070
 2.30000    5.56     3.02   4.52890
 2.25000    5.56     3.02   4.52960
 2.20000    5.56     3.01   4.52940
 2.15000    5.55     3.02   4.52930
 2.10000    5.55     3.01   4.52980
 2.05000    5.56     3.03   4.52790
 2.00000    5.57     3.01   4.52340
 1.95000    5.57     3.02   4.52620
 1.90000    5.57     3.01   4.52770
 1.85000    5.57     3.01   4.52500
 1.80000    5.58     3.02   4.52580
 1.75000    5.58     3.01   4.52590
 1.70000    5.58     3.02   4.52620
 1.65000    5.59     3.01   4.52410
 1.60000    5.59     3.02   4.52440
 1.55000    5.60     3.02   4.52810
 1.50000    5.60     3.00   4.53220
 1.45000    5.60     3.00   4.53400
 1.40000    5.60     3.02   4.53860
 1.35000    5.60     3.00   4.53850
 1.30000    5.60     3.00   4.53930
 1.25000    5.60     3.02   4.54380
 1.20000    5.60     3.00   4.55040
 1.15000    5.59     3.01   4.55480
 1.10000    5.59     3.01   4.55550
 1.05000    5.59     3.00   4.55720
 1.00000    5.59     3.01   4.56010
 0.95000    5.59     3.00   4.55930
 0.90000    5.59     3.00   4.56230
 0.85000    5.59     3.00   4.56110
 0.80000    5.59     2.99   4.56280
 0.75000    5.58     3.01   4.56430
 0.70000    5.57     2.99   4.56480
 0.65000    5.56     2.99   4.56290
 0.60000    5.55     3.02   4.56290
 0.55000    5.55     3.00   4.56080
 0.50000    5.54     3.00   4.56180
 0.45000    5.54     3.00   4.56290
 0.40000    5.53     3.01   4.56110
 0.35000    5.53     3.00   4.56140
 0.30000    5.52     3.00   4.56240
 0.25000    5.52     3.00   4.56270
 0.20000    5.52     3.00   4.56050
 0.15000    5.52     3.01   4.56120
 0.10000    5.53     2.99   4.56070
 0.05000    5.53     3.01   4.55820
-0.00000    5.54     2.99   4.55610
