 Field[T] Tsmpl[K] Tcntr[K] SignalIntensity
 7.00000    1.84     1.84   0.77381
 6.95000    1.84     1.84   0.74868
 6.90000    1.84     1.84   0.72700
 6.85000    1.84     1.84   0.70614
 6.80000    1.84     1.84   0.68289
 6.75000    1.84     1.84   0.65971
 6.70000    1.84     1.84   0.64156
 6.65000    1.84     1.84   0.62626
 6.60000    1.84     1.84   0.61027
 6.55000    1.84     1.84   0.59422
 6.50000    1.84     1.84   0.57864
 6.45000    1.84     1.84   0.56727
 6.40000    1.84     1.84   0.55546
 6.35000    1.84     1.84   0.54310
 6.30000    1.84     1.84   0.53125
 6.25000    1.84     1.84   0.52314
 6.20000    1.84     1.84   0.51339
 6.15000    1.84     1.84   0.50852
 6.10000    1.84     1.84   0.50464
 6.05000    1.84     1.84   0.50612
 6.00000    1.84     1.84   0.51123
 5.95000    1.84     1.84   0.51911
 5.90000    1.84     1.84   0.53132
 5.85000    1.84     1.84   0.54927
 5.80000    1.84     1.84   0.56833
 5.75000    1.84     1.84   0.59475
 5.70000    1.84     1.84   0.62515
 5.65000    1.84     1.84   0.65775
 5.60000    1.84     1.84   0.69311
 5.55000    1.84     1.84   0.72424
 5.50000    1.84     1.84   0.75388
 5.45000    1.84     1.84   0.78073
 5.40000    1.84     1.84   0.80199
 5.35000    1.84     1.84   0.81999
 5.30000    1.84     1.84   0.83380
 5.25000    1.84     1.84   0.84985
 5.20000    1.84     1.84   0.86474
 5.15000    1.84     1.84   0.87385
 5.10000    1.84     1.84   0.88571
 5.05000    1.84     1.84   0.89474
 5.00000    1.84     1.84   0.90082
 4.95000    1.84     1.84   0.90518
 4.90000    1.84     1.84   0.90972
 4.85000    1.84     1.84   0.91227
 4.80000    1.84     1.84   0.91489
 4.75000    1.84     1.84   0.91744
 4.70000    1.84     1.84   0.91730
 4.65000    1.84     1.84   0.91966
 4.60000    1.84     1.84   0.91863
 4.55000    1.84     1.84   0.92230
 4.50000    1.84     1.84   0.92315
 4.45000    1.84     1.84   0.92620
 4.40000    1.84     1.84   0.92488
 4.35000    1.84     1.84   0.92541
 4.30000    1.84     1.84   0.92845
 4.25000    1.84     1.84   0.93022
 4.20000    1.84     1.84   0.93013
 4.15000    1.84     1.84   0.93299
 4.10000    1.84     1.84   0.93283
 4.05000    1.84     1.84   0.93248
 4.00000    1.84     1.84   0.93173
 3.95000    1.84     1.84   0.93003
 3.90000    1.84     1.84   0.93170
 3.85000    1.84     1.84   0.93226
 3.80000    1.84     1.84   0.93306
 3.75000    1.84     1.84   0.93398
 3.70000    1.84     1.84   0.93394
 3.65000    1.84     1.84   0.93574
 3.60000    1.84     1.84   0.93493
 3.55000    1.84     1.84   0.93597
 3.50000    1.84     1.84   0.93506
 3.45000    1.84     1.84   0.93488
 3.40000    1.84     1.84   0.93713
 3.35000    1.84     1.84   0.93553
 3.30000    1.84     1.84   0.93668
 3.25000    1.84     1.84   0.93854
 3.20000    1.84     1.84   0.93636
 3.15000    1.84     1.84   0.93838
 3.10000    1.84     1.84   0.93630
 3.05000    1.84     1.84   0.93915
 3.00000    1.84     1.84   0.94032
 2.95000    1.84     1.84   0.93984
 2.90000    1.84     1.84   0.94111
 2.85000    1.84     1.84   0.93943
 2.80000    1.84     1.84   0.94347
 2.75000    1.84     1.84   0.94251
 2.70000    1.84     1.84   0.94381
 2.65000    1.84     1.84   0.94204
 2.60000    1.84     1.84   0.94360
 2.55000    1.84     1.84   0.94263
 2.50000    1.84     1.84   0.94134
 2.45000    1.84     1.84   0.94177
 2.40000    1.84     1.84   0.94267
 2.35000    1.84     1.84   0.94241
 2.30000    1.84     1.84   0.94455
 2.25000    1.84     1.84   0.94403
 2.20000    1.84     1.84   0.94260
 2.15000    1.84     1.84   0.94186
 2.10000    1.84     1.84   0.94276
 2.05000    1.84     1.84   0.94575
 2.00000    1.84     1.84   0.94247
 1.95000    1.84     1.84   0.94228
 1.90000    1.84     1.84   0.94472
 1.85000    1.84     1.84   0.94377
 1.80000    1.84     1.84   0.94427
 1.75000    1.84     1.84   0.94489
 1.70000    1.84     1.84   0.94531
 1.65000    1.84     1.84   0.93985
 1.60000    1.84     1.84   0.94270
 1.55000    1.84     1.84   0.94130
 1.50000    1.84     1.84   0.94322
 1.45000    1.84     1.84   0.94240
 1.40000    1.84     1.84   0.94127
 1.35000    1.84     1.84   0.94363
 1.30000    1.84     1.84   0.94279
 1.25000    1.84     1.84   0.94169
 1.20000    1.84     1.84   0.94032
 1.15000    1.84     1.84   0.94273
 1.10000    1.84     1.84   0.94242
 1.05000    1.84     1.84   0.94024
 1.00000    1.84     1.84   0.94536
 0.95000    1.84     1.84   0.94677
 0.90000    1.84     1.84   0.94367
 0.85000    1.84     1.84   0.94399
 0.80000    1.84     1.84   0.94466
 0.75000    1.84     1.84   0.93972
 0.70000    1.84     1.84   0.94344
 0.65000    1.84     1.84   0.94477
 0.60000    1.84     1.84   0.94323
 0.55000    1.84     1.84   0.94071
 0.50000    1.84     1.84   0.94489
 0.45000    1.84     1.84   0.94918
 0.40000    1.84     1.84   0.94490
 0.35000    1.84     1.84   0.94467
 0.30000    1.84     1.84   0.94465
 0.25000    1.84     1.84   0.94222
 0.20000    1.84     1.84   0.94293
 0.15000    1.84     1.84   0.94425
 0.10000    1.84     1.84   0.94313
 0.05000    1.84     1.84   0.94391
 -0.00000    1.84     1.84   0.94277
