 Field[T] Tsmpl[K] Tcntr[K] Signal   Mirror[MM]
 0.00000    4.38     2.90   1.36132  1.1209
 0.05000    4.37     2.91   1.35958  1.1215
 0.10000    4.36     2.89   1.35273  1.1266
 0.15000    4.34     2.92   1.35569  1.1233
 0.20000    4.34     2.91   1.35836  1.1205
 0.25000    4.34     2.90   1.35865  1.1197
 0.30000    4.33     2.91   1.35287  1.1221
 0.35000    4.32     2.91   1.35203  1.1191
 0.40000    4.31     2.91   1.35256  1.1179
 0.45000    4.30     2.91   1.35199  1.1168
 0.50000    4.29     2.93   1.35404  1.1149
 0.55000    4.28     2.89   1.35418  1.1136
 0.60000    4.27     2.91   1.35661  1.1124
 0.65000    4.26     2.91   1.35870  1.1115
 0.70000    4.26     2.89   1.36136  1.1113
 0.75000    4.25     0.00   1.36303  1.1105
 0.80000    4.35     3.70   1.37095  1.1119
 0.85000    4.79     3.71   1.37574  1.1114
 0.90000    4.90     3.51   1.37683  1.1118
 0.95000    5.02     3.43   1.37841  1.1121
 1.00000    5.09     3.38   1.37891  1.1127
 1.05000    5.13     3.33   1.38211  1.1119
 1.10000    5.14     3.28   1.38291  1.1118
 1.15000    5.14     3.23   1.38418  1.1116
 1.20000    5.13     3.21   1.38473  1.1125
 1.25000    5.11     3.17   1.38562  1.1123
 1.30000    5.08     3.15   1.38447  1.1133
 1.35000    5.06     3.13   1.38588  1.1131
 1.40000    5.03     3.09   1.38556  1.1131
 1.45000    5.00     3.07   1.38577  1.1142
 1.50000    4.98     3.06   1.38790  1.1144
 1.55000    4.95     3.05   1.38898  1.1137
 1.60000    4.93     3.05   1.39062  1.1143
 1.65000    4.91     3.01   1.38883  1.1148
 1.70000    4.89     3.01   1.38875  1.1141
 1.75000    4.87     3.01   1.39184  1.1141
 1.80000    4.86     3.02   1.38838  1.1160
 1.85000    4.84     2.99   1.38997  1.1147
 1.90000    4.83     2.99   1.39125  1.1151
 1.95000    4.82     2.99   1.39121  1.1149
 2.00000    4.81     2.99   1.39262  1.1143
 2.05000    4.81     2.99   1.38868  1.1165
 2.10000    4.81     3.00   1.39081  1.1158
 2.15000    4.81     2.98   1.39059  1.1154
 2.20000    4.81     2.99   1.38828  1.1176
 2.25000    4.81     2.99   1.38814  1.1164
 2.30000    4.81     2.99   1.38864  1.1172
 2.35000    4.81     3.00   1.38906  1.1166
 2.40000    4.82     2.98   1.39060  1.1161
 2.45000    4.83     3.00   1.38819  1.1171
 2.50000    4.84     3.00   1.39037  1.1160
 2.55000    4.84     3.01   1.38737  1.1173
 2.60000    4.85     3.01   1.38989  1.1160
 2.65000    4.85     3.00   1.38980  1.1167
 2.70000    4.85     2.99   1.38928  1.1169
 2.75000    4.86     3.00   1.38821  1.1176
 2.80000    4.86     3.00   1.38994  1.1166
 2.85000    4.86     2.99   1.39084  1.1167
 2.90000    4.86     3.01   1.38893  1.1174
 2.95000    4.86     2.99   1.38823  1.1181
 3.00000    4.87     3.02   1.38738  1.1182
 3.05000    4.87     3.00   1.38771  1.1184
 3.10000    4.87     2.99   1.39081  1.1178
 3.15000    4.88     3.00   1.38945  1.1172
 3.20000    4.88     3.01   1.38931  1.1179
 3.25000    4.89     3.00   1.38912  1.1174
 3.30000    4.89     2.99   1.38789  1.1173
 3.35000    4.89     2.99   1.38896  1.1176
 3.40000    4.89     2.99   1.38981  1.1176
 3.45000    4.89     3.01   1.39005  1.1175
 3.50000    4.89     2.99   1.39045  1.1176
 3.55000    4.89     3.00   1.38974  1.1181
 3.60000    4.89     3.01   1.38856  1.1185
 3.65000    4.89     2.99   1.38916  1.1180
 3.70000    4.89     3.00   1.38860  1.1183
 3.75000    4.89     3.01   1.39078  1.1178
 3.80000    4.89     3.00   1.39056  1.1180
 3.85000    4.89     3.00   1.39111  1.1176
 3.90000    4.89     3.01   1.38998  1.1180
 3.95000    4.90     2.99   1.38944  1.1186
 4.00000    4.90     3.01   1.39000  1.1181
 4.05000    4.91     3.00   1.38878  1.1185
 4.10000    4.91     3.00   1.39011  1.1187
 4.15000    4.91     3.01   1.39014  1.1191
 4.20000    4.91     2.99   1.38930  1.1191
 4.25000    4.91     2.99   1.38935  1.1189
 4.30000    4.91     3.01   1.39046  1.1186
 4.35000    4.91     2.99   1.38945  1.1201
 4.40000    4.91     3.00   1.38874  1.1195
 4.45000    4.90     3.02   1.39150  1.1186
 4.50000    4.90     2.99   1.39095  1.1187
 4.55000    4.90     3.00   1.39123  1.1190
 4.60000    4.89     3.02   1.38983  1.1196
 4.65000    4.89     2.99   1.39015  1.1191
 4.70000    4.89     3.00   1.39064  1.1194
 4.75000    4.89     3.00   1.38961  1.1199
 4.80000    4.89     3.01   1.39003  1.1196
 4.85000    4.89     3.00   1.38883  1.1202
 4.90000    4.89     3.00   1.38808  1.1203
 4.95000    4.89     3.01   1.38996  1.1195
 5.00000    4.89     3.00   1.38956  1.1199
 5.05000    4.89     3.00   1.39011  1.1196
 5.10000    4.89     3.00   1.38911  1.1203
 5.15000    4.89     3.00   1.38787  1.1213
 5.20000    4.90     3.01   1.38829  1.1210
 5.25000    4.91     3.00   1.38930  1.1208
 5.30000    4.92     3.00   1.38705  1.1215
 5.35000    4.93     3.02   1.38793  1.1207
 5.40000    4.94     3.00   1.38944  1.1206
 5.45000    4.95     2.99   1.38722  1.1209
 5.50000    4.95     3.01   1.38962  1.1204
 5.55000    4.96     3.00   1.38785  1.1213
 5.60000    4.97     2.99   1.38915  1.1208
 5.65000    4.97     3.02   1.38874  1.1205
 5.70000    4.98     3.00   1.38917  1.1205
 5.75000    4.99     3.00   1.38913  1.1207
 5.80000    4.99     3.00   1.38916  1.1208
 5.85000    5.00     3.00   1.38792  1.1211
 5.90000    5.00     3.00   1.38761  1.1210
 5.95000    5.01     3.01   1.38647  1.1226
 6.00000    5.02     2.99   1.38641  1.1217
 6.05000    5.03     2.99   1.38760  1.1216
 6.10000    5.04     3.00   1.38674  1.1223
 6.15000    5.04     3.00   1.38823  1.1214
 6.20000    5.04     3.00   1.38881  1.1213
 6.25000    5.05     3.00   1.38844  1.1212
 6.30000    5.06     3.00   1.38769  1.1213
 6.35000    5.06     3.01   1.38710  1.1215
 6.40000    5.07     3.00   1.38705  1.1217
 6.45000    5.07     3.00   1.38661  1.1218
 6.50000    5.08     3.02   1.38761  1.1215
 6.55000    5.09     3.00   1.38647  1.1219
 6.60000    5.09     2.99   1.38692  1.1216
 6.65000    5.09     3.01   1.38561  1.1220
 6.70000    5.09     3.00   1.38496  1.1220
 6.75000    5.09     3.00   1.38583  1.1216
 6.80000    5.09     3.00   1.38535  1.1221
 6.85000    5.09     2.99   1.38477  1.1220
 6.90000    5.09     3.00   1.38449  1.1224
 6.95000    5.09     3.01   1.38424  1.1227
 7.00000    5.10     2.99   1.38571  1.1218
 7.00000    5.10     3.01   1.38380  1.1231
 6.95000    5.10     2.99   1.38349  1.1223
 6.90000    5.09     3.00   1.38512  1.1224
 6.85000    5.09     3.01   1.38370  1.1225
 6.80000    5.09     3.00   1.38377  1.1230
 6.75000    5.10     3.01   1.38459  1.1220
 6.70000    5.10     3.00   1.38543  1.1221
 6.65000    5.10     3.01   1.38489  1.1221
 6.60000    5.10     3.02   1.38543  1.1217
 6.55000    5.11     3.01   1.38390  1.1233
 6.50000    5.11     3.01   1.38607  1.1220
 6.45000    5.11     3.02   1.38584  1.1224
 6.40000    5.11     3.03   1.38522  1.1219
 6.35000    5.11     3.02   1.38671  1.1215
 6.30000    5.12     3.02   1.38509  1.1223
 6.25000    5.13     3.04   1.38517  1.1228
 6.20000    5.14     3.02   1.38719  1.1217
 6.15000    5.14     3.02   1.38656  1.1223
 6.10000    5.15     3.02   1.38831  1.1218
 6.05000    5.16     3.02   1.38644  1.1224
 6.00000    5.16     3.02   1.38891  1.1219
 5.95000    5.16     3.02   1.38660  1.1220
 5.90000    5.17     3.03   1.38841  1.1223
 5.85000    5.17     3.01   1.38855  1.1218
 5.80000    5.17     3.02   1.38628  1.1227
 5.75000    5.17     3.00   1.38861  1.1220
 5.70000    5.17     3.03   1.38743  1.1230
 5.65000    5.18     3.00   1.38805  1.1226
 5.60000    5.18     3.01   1.38661  1.1231
 5.55000    5.18     3.00   1.38822  1.1221
 5.50000    5.18     3.02   1.38824  1.1223
 5.45000    5.18     3.01   1.38910  1.1218
 5.40000    5.19     3.01   1.38864  1.1222
 5.35000    5.19     3.01   1.38852  1.1227
 5.30000    5.20     3.01   1.38826  1.1230
 5.25000    5.20     3.02   1.38961  1.1220
 5.20000    5.21     3.00   1.38835  1.1230
 5.15000    5.21     3.01   1.38875  1.1224
 5.10000    5.21     3.01   1.38918  1.1225
 5.05000    5.22     3.01   1.38973  1.1213
 5.00000    5.22     3.01   1.39036  1.1218
 4.95000    5.23     3.01   1.39113  1.1219
 4.90000    5.23     3.01   1.38890  1.1226
 4.85000    5.24     3.01   1.38932  1.1224
 4.80000    5.24     3.00   1.38866  1.1225
 4.75000    5.25     3.00   1.38973  1.1218
 4.70000    5.25     3.02   1.38837  1.1226
 4.65000    5.26     3.00   1.38929  1.1221
 4.60000    5.27     3.01   1.38810  1.1226
 4.55000    5.27     3.01   1.39001  1.1218
 4.50000    5.28     3.02   1.38634  1.1227
 4.45000    5.28     3.00   1.39130  1.1211
 4.40000    5.29     3.00   1.38941  1.1219
 4.35000    5.30     3.00   1.38894  1.1220
 4.30000    5.32     3.01   1.38936  1.1217
 4.25000    5.34     3.01   1.38957  1.1221
 4.20000    5.35     3.00   1.39027  1.1215
 4.15000    5.36     3.00   1.39047  1.1213
 4.10000    5.36     3.01   1.38992  1.1217
 4.05000    5.38     3.01   1.39057  1.1215
 4.00000    5.39     3.00   1.39062  1.1209
 3.95000    5.39     3.01   1.38783  1.1222
 3.90000    5.40     3.01   1.38897  1.1219
 3.85000    5.40     3.00   1.38915  1.1216
 3.80000    5.40     3.00   1.38847  1.1217
 3.75000    5.40     3.01   1.38892  1.1215
 3.70000    5.40     3.01   1.38819  1.1214
 3.65000    5.40     3.00   1.38870  1.1211
 3.60000    5.40     3.00   1.38705  1.1216
 3.55000    5.40     3.01   1.38709  1.1218
 3.50000    5.41     3.00   1.38741  1.1220
 3.45000    5.41     3.00   1.38914  1.1209
 3.40000    5.41     3.02   1.38838  1.1219
 3.35000    5.41     3.00   1.38989  1.1211
 3.30000    5.41     3.01   1.38570  1.1236
 3.25000    5.41     3.01   1.38548  1.1228
 3.20000    5.41     3.00   1.38596  1.1224
 3.15000    5.41     3.00   1.38879  1.1214
 3.10000    5.41     3.00   1.38915  1.1214
 3.05000    5.41     3.00   1.38738  1.1219
 3.00000    5.41     3.00   1.38738  1.1225
 2.95000    5.41     3.00   1.38704  1.1226
 2.90000    5.41     3.00   1.38588  1.1230
 2.85000    5.41     3.00   1.38665  1.1232
 2.80000    5.41     3.00   1.39025  1.1218
 2.75000    5.41     3.02   1.39088  1.1214
 2.70000    5.41     3.00   1.39067  1.1212
 2.65000    5.41     3.00   1.39033  1.1215
 2.60000    5.41     3.02   1.38957  1.1213
 2.55000    5.41     3.00   1.38888  1.1227
 2.50000    5.41     3.01   1.38825  1.1220
 2.45000    5.42     3.03   1.39054  1.1205
 2.40000    5.43     3.01   1.38939  1.1217
 2.35000    5.43     3.01   1.39209  1.1197
 2.30000    5.43     3.01   1.38997  1.1203
 2.25000    5.43     3.01   1.39095  1.1196
 2.20000    5.44     3.02   1.38743  1.1219
 2.15000    5.44     3.00   1.39045  1.1208
 2.10000    5.44     3.00   1.38789  1.1210
 2.05000    5.44     3.02   1.38909  1.1209
 2.00000    5.44     3.00   1.38811  1.1212
 1.95000    5.44     3.00   1.38779  1.1200
 1.90000    5.44     3.00   1.39207  1.1192
 1.85000    5.43     2.99   1.39017  1.1191
 1.80000    5.43     3.02   1.38911  1.1188
 1.75000    5.43     3.00   1.38989  1.1188
 1.70000    5.43     3.01   1.38765  1.1195
 1.65000    5.43     3.00   1.38775  1.1185
 1.60000    5.42     3.01   1.38850  1.1188
 1.55000    5.42     3.00   1.38870  1.1178
 1.50000    5.42     3.01   1.38579  1.1187
 1.45000    5.41     3.00   1.38762  1.1177
 1.40000    5.40     3.00   1.38645  1.1169
 1.35000    5.39     2.99   1.38505  1.1172
 1.30000    5.38     3.02   1.38408  1.1177
 1.25000    5.37     3.00   1.38359  1.1170
 1.20000    5.36     3.00   1.38286  1.1170
 1.15000    5.34     3.00   1.38220  1.1169
 1.10000    5.33     2.99   1.38231  1.1161
 1.05000    5.32     3.01   1.37709  1.1173
 1.00000    5.31     3.00   1.37737  1.1167
 0.95000    5.29     3.00   1.37663  1.1169
 0.90000    5.28     2.99   1.37437  1.1164
 0.85000    5.26     2.99   1.37207  1.1164
 0.80000    5.24     3.01   1.36932  1.1165
 0.75000    5.22     2.99   1.36754  1.1178
 0.70000    5.20     2.99   1.36601  1.1176
 0.65000    5.18     3.00   1.36448  1.1173
 0.60000    5.17     3.00   1.36245  1.1184
 0.55000    5.14     2.99   1.36013  1.1201
 0.50000    5.13     2.99   1.35669  1.1215
 0.45000    5.12     2.99   1.35796  1.1211
 0.40000    5.10     2.99   1.35850  1.1222
 0.35000    5.09     3.01   1.35973  1.1235
 0.30000    5.09     2.99   1.36080  1.1236
 0.25000    5.07     2.99   1.35949  1.1252
 0.20000    5.06     3.01   1.36053  1.1257
 0.15000    5.05     2.99   1.36175  1.1257
 0.10000    5.04     2.99   1.36058  1.1272
 0.05000    5.03     2.98   1.36252  1.1267
-0.00000    5.02     3.00   1.36195  1.1263
