 Field[T] Tsmpl[K] Tcntr[K] Signal   Mirror[MM]
 0.00000    4.82     2.99   0.78448  0.9855
 0.05000    4.81     3.00   0.78438  0.9855
 0.10000    4.81     2.98   0.78453  0.9870
 0.15000    4.81     3.00   0.78669  0.9850
 0.20000    4.81     2.99   0.78676  0.9851
 0.25000    4.81     3.00   0.78782  0.9848
 0.30000    4.81     2.99   0.78746  0.9847
 0.35000    4.81     3.00   0.78843  0.9835
 0.40000    4.82     2.98   0.78890  0.9834
 0.45000    4.82     3.00   0.78825  0.9829
 0.50000    4.83     3.00   0.78847  0.9818
 0.55000    4.83     3.00   0.78897  0.9821
 0.60000    4.84     3.00   0.78978  0.9801
 0.65000    4.84     3.00   0.79134  0.9795
 0.70000    4.84     3.01   0.79269  0.9789
 0.75000    4.84     2.99   0.79396  0.9790
 0.80000    4.84     3.00   0.79603  0.9781
 0.85000    4.83     3.00   0.79756  0.9773
 0.90000    4.83     2.99   0.80026  0.9767
 0.95000    4.83     3.01   0.80189  0.9770
 1.00000    4.84     2.99   0.80286  0.9777
 1.05000    4.84     2.99   0.80492  0.9772
 1.10000    4.84     2.99   0.80575  0.9776
 1.15000    4.84     3.00   0.80737  0.9773
 1.20000    4.84     3.00   0.80794  0.9773
 1.25000    4.84     2.99   0.80980  0.9780
 1.30000    4.84     3.01   0.81034  0.9783
 1.35000    4.85     2.99   0.81035  0.9787
 1.40000    4.85     2.99   0.81170  0.9785
 1.45000    4.86     3.01   0.81250  0.9793
 1.50000    4.86     2.99   0.81356  0.9788
 1.55000    4.86     3.01   0.81299  0.9798
 1.60000    4.87     2.99   0.81278  0.9798
 1.65000    4.87     2.99   0.81319  0.9803
 1.70000    4.86     3.01   0.81505  0.9797
 1.75000    4.86     2.99   0.81367  0.9806
 1.80000    4.86     2.99   0.81520  0.9804
 1.85000    4.86     2.99   0.81535  0.9809
 1.90000    4.86     2.99   0.81572  0.9819
 1.95000    4.86     3.01   0.81590  0.9823
 2.00000    4.87     2.99   0.81685  0.9814
 2.00000    4.87     3.00   0.81635  0.9814
 1.95000    4.87     3.01   0.81671  0.9808
 1.90000    4.88     2.99   0.81630  0.9817
 1.85000    4.89     3.00   0.81641  0.9813
 1.80000    4.89     3.01   0.81550  0.9805
 1.75000    4.89     3.00   0.81622  0.9802
 1.70000    4.89     3.00   0.81579  0.9802
 1.65000    4.89     3.00   0.81547  0.9799
 1.60000    4.88     3.00   0.81595  0.9793
 1.55000    4.87     3.01   0.81350  0.9799
 1.50000    4.86     3.01   0.81431  0.9791
 1.45000    4.86     3.00   0.81414  0.9792
 1.40000    4.86     3.00   0.81384  0.9785
 1.35000    4.86     3.00   0.81284  0.9788
 1.30000    4.86     3.01   0.81210  0.9783
 1.25000    4.86     3.01   0.81173  0.9787
 1.20000    4.86     3.00   0.81094  0.9785
 1.15000    4.86     3.02   0.81041  0.9788
 1.10000    4.87     3.02   0.80934  0.9777
 1.05000    4.87     3.01   0.80822  0.9776
 1.00000    4.87     3.01   0.80790  0.9773
 0.95000    4.88     3.01   0.80652  0.9781
 0.90000    4.88     3.03   0.80564  0.9778
 0.85000    4.89     3.01   0.80350  0.9782
 0.80000    4.90     3.02   0.80236  0.9793
 0.75000    4.91     3.02   0.80117  0.9793
 0.70000    4.91     3.02   0.80008  0.9794
 0.65000    4.92     3.03   0.79928  0.9804
 0.60000    4.94     3.01   0.79837  0.9811
 0.55000    4.94     3.02   0.79750  0.9830
 0.50000    4.95     3.01   0.79795  0.9838
 0.45000    4.96     0.00   0.79756  0.9843
 0.40000    4.96     3.02   0.79815  0.9853
 0.35000    4.97     3.00   0.79870  0.9857
 0.30000    4.97     3.00   0.79873  0.9863
 0.25000    4.97     3.01   0.79946  0.9867
 0.20000    4.96     3.00   0.80070  0.9866
 0.15000    4.95     3.00   0.80065  0.9872
 0.10000    4.94     3.00   0.80117  0.9874
 0.05000    4.94     3.00   0.79955  0.9882
-0.00000    4.92     3.00   0.80120  0.9869
