 Field[T] Tsmpl[K] Tcntr[K] Signal   Mirror[MM]
 0.00000    5.02     2.99   1.35838  0.7225
 0.05000    5.02     3.00   1.35985  0.7225
 0.10000    5.02     3.00   1.36204  0.7225
 0.15000    5.02     3.01   1.36378  0.7225
 0.20000    5.03     3.00   1.36437  0.7225
 0.25000    5.03     3.00   1.36630  0.7225
 0.30000    5.03     2.99   1.36856  0.7225
 0.35000    5.03     3.02   1.36793  0.7223
 0.40000    5.03     2.99   1.36587  0.7225
 0.45000    5.03     3.00   1.36565  0.7225
 0.50000    5.03     2.99   1.36489  0.7225
 0.55000    5.03     3.01   1.36454  0.7225
 0.60000    5.03     2.99   1.36408  0.7225
 0.65000    5.03     3.00   1.36593  0.7225
 0.70000    5.03     2.99   1.36553  0.7223
 0.75000    5.03     3.01   1.36429  0.7220
 0.80000    5.03     3.00   1.36484  0.7220
 0.85000    5.03     3.00   1.36322  0.7220
 0.90000    5.03     3.01   1.36088  0.7220
 0.95000    5.03     2.99   1.36037  0.7220
 1.00000    5.03     3.00   1.35792  0.7220
 1.05000    5.03     3.00   1.35672  0.7220
 1.10000    5.02     2.99   1.35588  0.7220
 1.15000    5.02     3.01   1.35397  0.7220
 1.20000    5.03     2.99   1.35198  0.7220
 1.25000    5.03     2.99   1.35011  0.7215
 1.30000    5.03     3.00   1.34954  0.7215
 1.35000    5.04     3.00   1.34942  0.7210
 1.40000    5.04     3.00   1.34767  0.7210
 1.45000    5.04     3.00   1.34562  0.7205
 1.50000    5.04     2.99   1.34452  0.7205
 1.55000    5.04     3.01   1.34427  0.7200
 1.60000    5.04     2.99   1.34396  0.7195
 1.65000    5.04     3.00   1.34400  0.7195
 1.70000    5.04     3.01   1.34422  0.7192
 1.75000    5.05     2.98   1.34387  0.7190
 1.80000    5.05     2.99   1.34539  0.7190
 1.85000    5.05     3.00   1.34523  0.7185
 1.90000    5.05     2.99   1.34473  0.7185
 1.95000    5.06     3.00   1.34487  0.7185
 2.00000    5.06     3.00   1.34403  0.7180
 2.05000    5.06     3.01   1.34504  0.7180
 2.10000    5.06     2.99   1.34613  0.7180
 2.15000    5.06     3.00   1.34677  0.7180
 2.20000    5.06     3.01   1.34787  0.7180
 2.25000    5.08     2.99   1.34809  0.7180
 2.30000    5.08     3.00   1.34926  0.7180
 2.35000    5.09     3.01   1.35027  0.7180
 2.40000    5.11     3.00   1.35016  0.7180
 2.45000    5.13     3.00   1.34925  0.7180
 2.50000    5.14     3.00   1.34866  0.7180
 2.55000    5.17     3.00   1.34879  0.7180
 2.60000    5.19     3.00   1.34925  0.7180
 2.65000    5.21     3.00   1.34891  0.7180
 2.70000    5.23     3.00   1.34887  0.7180
 2.75000    5.24     3.00   1.34921  0.7175
 2.80000    5.25     3.00   1.34926  0.7175
 2.85000    5.25     3.00   1.34940  0.7175
 2.90000    5.24     3.00   1.34964  0.7175
 2.95000    5.24     2.99   1.34793  0.7175
 3.00000    5.23     2.99   1.34943  0.7175
 3.00000    5.22     3.00   1.34959  0.7175
 2.95000    5.22     3.01   1.34804  0.7175
 2.90000    5.21     3.01   1.34830  0.7175
 2.85000    5.20     3.01   1.34698  0.7175
 2.80000    5.20     3.00   1.34631  0.7175
 2.75000    5.20     3.01   1.34579  0.7175
 2.70000    5.20     3.02   1.34671  0.7175
 2.65000    5.20     3.01   1.34464  0.7175
 2.60000    5.21     3.01   1.34334  0.7175
 2.55000    5.21     3.02   1.34272  0.7175
 2.50000    5.22     3.02   1.34200  0.7175
 2.45000    5.22     3.01   1.33932  0.7175
 2.40000    5.22     3.02   1.33851  0.7175
 2.35000    5.23     3.02   1.33703  0.7175
 2.30000    5.24     3.03   1.33612  0.7175
 2.25000    5.25     3.02   1.33530  0.7175
 2.20000    5.25     3.02   1.33487  0.7175
 2.15000    5.26     3.02   1.33371  0.7180
 2.10000    5.27     3.04   1.33494  0.7180
 2.05000    5.28     3.02   1.33272  0.7185
 2.00000    5.29     3.02   1.33068  0.7185
 1.95000    5.30     3.03   1.32929  0.7190
 1.90000    5.31     3.03   1.32790  0.7190
 1.85000    5.31     3.02   1.32644  0.7193
 1.80000    5.32     3.01   1.32665  0.7195
 1.75000    5.32     3.01   1.32377  0.7195
 1.70000    5.33     3.03   1.32385  0.7195
 1.65000    5.33     3.00   1.32337  0.7195
 1.60000    5.33     3.01   1.32221  0.7200
 1.55000    5.33     3.03   1.32163  0.7205
 1.50000    5.34     3.00   1.32243  0.7210
 1.45000    5.34     3.01   1.32282  0.7210
 1.40000    5.34     3.01   1.32518  0.7210
 1.35000    5.34     3.00   1.32643  0.7215
 1.30000    5.35     3.00   1.32709  0.7220
 1.25000    5.35     3.01   1.33017  0.7220
 1.20000    5.36     3.01   1.33262  0.7220
 1.15000    5.36     3.01   1.33295  0.7220
 1.10000    5.36     3.00   1.33210  0.7225
 1.05000    5.37     3.00   1.33163  0.7225
 1.00000    5.37     3.00   1.33337  0.7230
 0.95000    5.37     3.00   1.33483  0.7230
 0.90000    5.36     3.02   1.33513  0.7230
 0.85000    5.36     3.01   1.33670  0.7230
 0.80000    5.36     3.00   1.33831  0.7230
 0.75000    5.35     2.99   1.34185  0.7230
 0.70000    5.34     3.00   1.34245  0.7230
 0.65000    5.34     3.01   1.34216  0.7230
 0.60000    5.33     3.00   1.34149  0.7230
 0.55000    5.32     2.99   1.34158  0.7230
 0.50000    5.31     3.00   1.34129  0.7230
 0.45000    5.30     2.99   1.34098  0.7230
 0.40000    5.29     2.99   1.34129  0.7230
 0.35000    5.28     3.02   1.34159  0.7230
 0.30000    5.27     3.00   1.34342  0.7230
 0.25000    5.26     2.99   1.34437  0.7230
 0.20000    5.25     3.00   1.34623  0.7230
 0.15000    5.25     3.00   1.34267  0.7234
 0.10000    5.24     3.00   1.34214  0.7235
 0.05000    5.24     3.00   1.34245  0.7235
-0.00000    5.24     3.01   1.34236  0.7235
