 Field[T] Tsmpl[K] Tcntr[K] Signal   Mirror[MM]
 0.00000    4.91     2.98   1.39194  0.7318
 0.05000    4.91     2.99   1.39197  0.7317
 0.10000    4.91     2.99   1.39360  0.7316
 0.15000    4.91     2.99   1.39279  0.7316
 0.20000    4.91     3.00   1.39448  0.7315
 0.25000    4.92     2.99   1.39392  0.7317
 0.30000    4.92     3.01   1.39628  0.7316
 0.35000    4.93     3.00   1.39608  0.7313
 0.40000    4.93     3.00   1.39521  0.7314
 0.45000    4.93     3.01   1.39447  0.7313
 0.50000    4.94     3.00   1.39419  0.7313
 0.55000    4.93     3.00   1.39367  0.7314
 0.60000    4.93     3.00   1.39327  0.7312
 0.65000    4.93     3.01   1.39250  0.7312
 0.70000    4.93     2.99   1.39123  0.7310
 0.75000    4.93     2.99   1.38972  0.7308
 0.80000    4.93     2.99   1.38977  0.7304
 0.85000    4.93     3.01   1.38837  0.7303
 0.90000    4.93     2.99   1.38856  0.7298
 0.95000    4.93     3.00   1.38798  0.7296
 1.00000    4.93     3.00   1.38687  0.7293
 1.05000    4.93     3.00   1.38698  0.7288
 1.10000    4.93     2.99   1.38626  0.7284
 1.15000    4.93     3.02   1.38744  0.7279
 1.20000    4.94     3.00   1.38894  0.7277
 1.25000    4.94     3.00   1.38973  0.7274
 1.30000    4.94     2.99   1.39076  0.7268
 1.35000    4.95     3.01   1.39237  0.7264
 1.40000    4.95     3.00   1.39378  0.7261
 1.45000    4.95     3.00   1.39392  0.7259
 1.50000    4.96     2.99   1.39444  0.7257
 1.55000    4.96     2.99   1.39566  0.7254
 1.60000    4.96     3.00   1.39673  0.7256
 1.65000    4.96     2.99   1.39915  0.7255
 1.70000    4.96     3.01   1.40071  0.7253
 1.75000    4.97     3.00   1.40275  0.7252
 1.80000    4.96     3.00   1.40294  0.7251
 1.85000    4.97     3.00   1.40423  0.7252
 1.90000    4.97     3.01   1.40637  0.7252
 1.95000    4.97     3.02   1.40650  0.7252
 2.00000    4.97     3.00   1.40740  0.7253
 2.00000    4.97     3.00   1.40820  0.7253
 1.95000    4.98     3.00   1.40759  0.7253
 1.90000    4.99     3.00   1.40644  0.7256
 1.85000    5.01     3.01   1.40587  0.7253
 1.80000    5.02     3.00   1.40493  0.7255
 1.75000    5.05     3.02   1.40436  0.7253
 1.70000    5.08     3.02   1.40309  0.7256
 1.65000    5.11     3.02   1.40162  0.7256
 1.60000    5.13     3.03   1.40173  0.7258
 1.55000    5.15     3.02   1.40025  0.7258
 1.50000    5.16     3.02   1.39983  0.7259
 1.45000    5.17     3.03   1.39856  0.7263
 1.40000    5.18     3.03   1.39709  0.7266
 1.35000    5.19     3.03   1.39573  0.7269
 1.30000    5.20     3.04   1.39576  0.7273
 1.25000    5.20     3.03   1.39603  0.7274
 1.20000    5.21     3.04   1.39594  0.7279
 1.15000    5.21     3.05   1.39474  0.7283
 1.10000    5.22     3.03   1.39486  0.7287
 1.05000    5.22     3.04   1.39496  0.7292
 1.00000    5.22     3.03   1.39658  0.7295
 0.95000    5.23     3.03   1.39765  0.7299
 0.90000    5.24     3.04   1.39773  0.7301
 0.85000    5.24     3.03   1.39804  0.7305
 0.80000    5.25     3.03   1.40020  0.7309
 0.75000    5.26     3.03   1.40065  0.7313
 0.70000    5.26     3.03   1.40154  0.7315
 0.65000    5.27     3.04   1.40416  0.7315
 0.60000    5.28     3.03   1.40533  0.7316
 0.55000    5.29     3.02   1.40705  0.7317
 0.50000    5.29     3.02   1.40716  0.7323
 0.45000    5.29     3.02   1.40784  0.7322
 0.40000    5.30     3.01   1.40906  0.7322
 0.35000    5.29     3.01   1.40975  0.7318
 0.30000    5.29     3.03   1.41025  0.7322
 0.25000    5.28     3.01   1.41269  0.7322
 0.20000    5.26     3.01   1.41238  0.7323
 0.15000    5.25     3.01   1.41334  0.7323
 0.10000    5.23     3.01   1.41253  0.7324
 0.05000    5.21     2.99   1.41266  0.7323
-0.00000    5.18     3.00   1.41305  0.7322
