 Field[T] Tsmpl[K] Tcntr[K] Signal   Mirror[MM]
 0.00000    5.00     2.99   1.15581  0.6496
 0.05000    5.00     2.99   1.15621  0.6495
 0.10000    5.00     3.00   1.15604  0.6496
 0.15000    5.00     2.99   1.15584  0.6496
 0.20000    5.00     2.98   1.15481  0.6496
 0.25000    5.00     2.99   1.15543  0.6496
 0.30000    5.00     2.99   1.15474  0.6494
 0.35000    5.00     3.00   1.15321  0.6494
 0.40000    5.00     3.00   1.15331  0.6498
 0.45000    5.00     3.00   1.15391  0.6491
 0.50000    5.00     2.99   1.15330  0.6493
 0.55000    5.01     3.01   1.15314  0.6493
 0.60000    5.01     2.99   1.15254  0.6489
 0.65000    5.01     3.00   1.15114  0.6491
 0.70000    5.01     3.00   1.14903  0.6493
 0.75000    5.00     2.99   1.14857  0.6488
 0.80000    4.99     2.99   1.14728  0.6485
 0.85000    4.99     2.99   1.14571  0.6483
 0.90000    4.98     2.98   1.14507  0.6484
 0.95000    4.98     2.98   1.14389  0.6483
 1.00000    4.97     2.99   1.14237  0.6478
 1.05000    4.97     2.98   1.14218  0.6475
 1.10000    4.97     2.99   1.14247  0.6468
 1.15000    4.97     2.97   1.14202  0.6464
 1.20000    4.97     2.99   1.14289  0.6460
 1.25000    4.97     2.98   1.14113  0.6459
 1.30000    4.97     2.99   1.14182  0.6454
 1.35000    4.98     2.98   1.14193  0.6451
 1.40000    4.98     2.98   1.14296  0.6448
 1.45000    4.98     3.00   1.14395  0.6445
 1.50000    4.99     2.98   1.14458  0.6443
 1.55000    4.99     2.99   1.14681  0.6440
 1.60000    5.00     2.98   1.14655  0.6438
 1.65000    5.00     2.99   1.14640  0.6440
 1.70000    5.01     2.98   1.14725  0.6437
 1.75000    5.01     2.99   1.14773  0.6434
 1.80000    5.01     3.00   1.14843  0.6434
 1.85000    5.01     3.00   1.14908  0.6434
 1.90000    5.01     2.99   1.14939  0.6431
 1.95000    5.02     3.01   1.15049  0.6430
 2.00000    5.03     2.99   1.15097  0.6431
 2.05000    5.04     2.99   1.15135  0.6432
 2.10000    5.05     3.00   1.15237  0.6431
 2.15000    5.07     2.99   1.15197  0.6431
 2.20000    5.08     3.01   1.15315  0.6432
 2.25000    5.10     3.01   1.15383  0.6433
 2.30000    5.11     3.00   1.15504  0.6430
 2.35000    5.12     3.00   1.15532  0.6429
 2.40000    5.13     3.01   1.15410  0.6430
 2.45000    5.14     3.00   1.15522  0.6429
 2.50000    5.14     3.01   1.15487  0.6431
 2.55000    5.14     3.01   1.15570  0.6430
 2.60000    5.13     3.00   1.15576  0.6431
 2.65000    5.12     3.02   1.15559  0.6431
 2.70000    5.12     3.00   1.15684  0.6432
 2.75000    5.12     3.00   1.15705  0.6431
 2.80000    5.12     3.00   1.15715  0.6431
 2.85000    5.12     3.01   1.15612  0.6434
 2.90000    5.14     3.00   1.15735  0.6432
 2.95000    5.14     3.01   1.15774  0.6431
 3.00000    5.15     3.02   1.15789  0.6431
 3.00000    5.16     3.02   1.15737  0.6432
 2.95000    5.17     3.01   1.15694  0.6432
 2.90000    5.18     3.01   1.15800  0.6433
 2.85000    5.20     3.02   1.15740  0.6432
 2.80000    5.22     3.02   1.15814  0.6430
 2.75000    5.23     3.03   1.15770  0.6430
 2.70000    5.25     3.03   1.15715  0.6432
 2.65000    5.26     3.04   1.15673  0.6431
 2.60000    5.28     3.03   1.15704  0.6429
 2.55000    5.30     3.04   1.15625  0.6430
 2.50000    5.31     3.04   1.15607  0.6432
 2.45000    5.33     3.03   1.15680  0.6431
 2.40000    5.34     3.04   1.15660  0.6429
 2.35000    5.35     3.05   1.15604  0.6431
 2.30000    5.36     3.03   1.15559  0.6432
 2.25000    5.37     3.04   1.15513  0.6432
 2.20000    5.37     3.03   1.15489  0.6433
 2.15000    5.38     3.04   1.15435  0.6432
 2.10000    5.38     3.04   1.15409  0.6434
 2.05000    5.39     3.03   1.15355  0.6434
 2.00000    5.39     3.04   1.15365  0.6436
 1.95000    5.39     3.04   1.15348  0.6435
 1.90000    5.39     3.03   1.15331  0.6434
 1.85000    5.39     3.02   1.15170  0.6437
 1.80000    5.39     3.03   1.15088  0.6438
 1.75000    5.40     3.02   1.15060  0.6437
 1.70000    5.40     3.02   1.14969  0.6439
 1.65000    5.40     3.03   1.14952  0.6440
 1.60000    5.41     3.03   1.14870  0.6440
 1.55000    5.41     3.01   1.14852  0.6441
 1.50000    5.42     3.01   1.14777  0.6441
 1.45000    5.42     3.04   1.14711  0.6446
 1.40000    5.43     3.02   1.14683  0.6450
 1.35000    5.43     3.01   1.14653  0.6453
 1.30000    5.44     3.01   1.14638  0.6455
 1.25000    5.45     3.01   1.14556  0.6457
 1.20000    5.45     3.00   1.14516  0.6464
 1.15000    5.46     3.02   1.14481  0.6471
 1.10000    5.47     3.00   1.14462  0.6478
 1.05000    5.47     3.00   1.14622  0.6477
 1.00000    5.47     3.02   1.14826  0.6479
 0.95000    5.47     3.00   1.14843  0.6480
 0.90000    5.46     3.01   1.14928  0.6483
 0.85000    5.45     3.01   1.14953  0.6487
 0.80000    5.45     3.02   1.15170  0.6486
 0.75000    5.44     3.00   1.15257  0.6487
 0.70000    5.43     3.01   1.15398  0.6490
 0.65000    5.41     2.99   1.15496  0.6491
 0.60000    5.40     3.02   1.15616  0.6493
 0.55000    5.39     2.99   1.15699  0.6492
 0.50000    5.38     3.00   1.15778  0.6492
 0.45000    5.36     2.99   1.15846  0.6492
 0.40000    5.35     3.00   1.15872  0.6493
 0.35000    5.34     3.02   1.16002  0.6492
 0.30000    5.32     2.99   1.15997  0.6493
 0.25000    5.31     2.99   1.15974  0.6492
 0.20000    5.29     2.99   1.15990  0.6494
 0.15000    5.28     3.00   1.15964  0.6494
 0.10000    5.26     3.00   1.15931  0.6497
 0.05000    5.25     2.99   1.16043  0.6499
-0.00000    5.24     3.00   1.15970  0.6497
