 Field[T] Tsmpl[K] Tcntr[K] Signal   Mirror[MM]
 0.00000    4.86     2.96   0.65666  0.9437
 0.05000    4.85     2.96   0.65657  0.9435
 0.10000    4.84     2.96   0.65583  0.9435
 0.15000    4.82     2.98   0.65591  0.9436
 0.20000    4.81     2.94   0.65560  0.9437
 0.25000    4.80     2.95   0.65520  0.9435
 0.30000    4.79     2.95   0.65494  0.9434
 0.35000    4.78     2.95   0.65460  0.9433
 0.40000    4.76     2.96   0.65421  0.9431
 0.45000    4.76     2.95   0.65393  0.9433
 0.50000    4.74     2.95   0.65357  0.9432
 0.55000    4.73     2.95   0.65328  0.9432
 0.60000    4.72     2.95   0.65278  0.9430
 0.65000    4.72     2.93   0.65258  0.9431
 0.70000    4.70     2.94   0.65226  0.9431
 0.75000    4.69     2.94   0.65199  0.9432
 0.80000    4.68     2.93   0.65097  0.9431
 0.85000    4.67     2.92   0.65092  0.9431
 0.90000    4.65     2.93   0.65025  0.9432
 0.95000    4.64     2.92   0.64990  0.9430
 1.00000    4.63     2.94   0.64940  0.9428
 1.05000    4.61     2.93   0.64891  0.9429
 1.10000    4.60     2.93   0.64799  0.9430
 1.15000    4.59     2.93   0.64746  0.9431
 1.20000    4.58     2.93   0.64654  0.9432
 1.25000    4.56     2.94   0.64607  0.9432
 1.30000    4.56     2.92   0.64499  0.9431
 1.35000    4.54     2.93   0.64457  0.9429
 1.40000    4.54     2.93   0.64416  0.9428
 1.45000    4.53     2.93   0.64330  0.9427
 1.50000    4.52     2.94   0.64256  0.9427
 1.55000    4.52     2.95   0.64200  0.9425
 1.60000    4.52     2.93   0.64106  0.9422
 1.65000    4.51     2.95   0.64048  0.9421
 1.70000    4.51     2.95   0.64018  0.9420
 1.75000    4.51     2.95   0.63971  0.9418
 1.80000    4.51     2.95   0.63956  0.9416
 1.85000    4.51     2.95   0.63934  0.9414
 1.90000    4.51     2.96   0.63944  0.9414
 1.95000    4.52     2.94   0.63925  0.9412
 2.00000    4.53     2.96   0.63953  0.9408
 2.05000    4.55     2.97   0.63925  0.9408
 2.10000    4.57     2.97   0.63960  0.9407
 2.15000    4.59     2.97   0.63982  0.9407
 2.20000    4.60     2.98   0.63997  0.9404
 2.25000    4.60     2.97   0.64008  0.9402
 2.30000    4.60     2.96   0.64015  0.9403
 2.35000    4.60     2.95   0.64031  0.9401
 2.40000    4.58     2.94   0.64095  0.9398
 2.45000    4.57     2.95   0.64058  0.9399
 2.50000    4.57     2.95   0.64055  0.9400
 2.55000    4.56     2.95   0.64070  0.9400
 2.60000    4.54     2.95   0.64054  0.9397
 2.65000    4.53     2.95   0.64062  0.9399
 2.70000    4.51     2.96   0.64078  0.9395
 2.75000    4.50     2.97   0.64091  0.9397
 2.80000    4.51     2.95   0.64095  0.9394
 2.85000    4.52     2.97   0.64110  0.9393
 2.90000    4.54     2.98   0.64097  0.9395
 2.95000    4.56     2.98   0.64118  0.9393
 3.00000    4.58     2.99   0.64125  0.9392
 3.05000    4.60     2.98   0.64129  0.9393
 3.10000    4.61     3.00   0.64140  0.9393
 3.15000    4.62     2.98   0.64156  0.9392
 3.20000    4.62     2.99   0.64156  0.9393
 3.25000    4.63     2.99   0.64173  0.9393
 3.30000    4.63     3.00   0.64193  0.9392
 3.35000    4.63     3.00   0.64181  0.9391
 3.40000    4.64     3.00   0.64163  0.9392
 3.45000    4.65     3.00   0.64201  0.9392
 3.50000    4.66     3.01   0.64218  0.9392
 3.55000    4.67     3.03   0.64231  0.9394
 3.60000    4.69     3.01   0.64234  0.9393
 3.65000    4.69     3.02   0.64223  0.9394
 3.70000    4.70     3.02   0.64194  0.9393
 3.75000    4.71     3.03   0.64208  0.9392
 3.80000    4.72     3.03   0.64203  0.9393
 3.85000    4.74     3.03   0.64230  0.9394
 3.90000    4.75     3.03   0.64239  0.9394
 3.95000    4.77     3.04   0.64248  0.9393
 4.00000    4.78     3.05   0.64247  0.9394
 4.00000    4.78     3.06   0.64244  0.9394
 3.95000    4.80     3.04   0.64248  0.9393
 3.90000    4.81     3.04   0.64258  0.9392
 3.85000    4.83     3.05   0.64249  0.9392
 3.80000    4.84     3.06   0.64276  0.9392
 3.75000    4.86     3.05   0.64279  0.9393
 3.70000    4.89     3.07   0.64287  0.9392
 3.65000    4.90     3.08   0.64288  0.9392
 3.60000    4.92     3.07   0.64292  0.9393
 3.55000    4.93     3.09   0.64306  0.9390
 3.50000    4.95     3.08   0.64274  0.9393
 3.45000    4.96     3.09   0.64277  0.9393
 3.40000    4.97     3.09   0.64296  0.9394
 3.35000    4.98     3.09   0.64272  0.9395
 3.30000    4.98     3.08   0.64257  0.9395
 3.25000    4.99     3.10   0.64298  0.9393
 3.20000    4.99     3.09   0.64297  0.9395
 3.15000    4.99     3.08   0.64258  0.9394
 3.10000    4.99     3.08   0.64288  0.9394
 3.05000    5.00     3.08   0.64257  0.9394
 3.00000    5.00     3.09   0.64265  0.9393
 2.95000    5.01     3.07   0.64265  0.9394
 2.90000    5.01     3.08   0.64242  0.9395
 2.85000    5.02     3.06   0.64254  0.9396
 2.80000    5.03     3.06   0.64221  0.9396
 2.75000    5.03     3.07   0.64220  0.9395
 2.70000    5.04     3.06   0.64221  0.9396
 2.65000    5.04     3.08   0.64188  0.9399
 2.60000    5.05     3.05   0.64207  0.9400
 2.55000    5.05     3.06   0.64207  0.9400
 2.50000    5.05     3.06   0.64170  0.9401
 2.45000    5.05     3.03   0.64166  0.9400
 2.40000    5.05     3.05   0.64172  0.9399
 2.35000    5.06     3.06   0.64145  0.9403
 2.30000    5.07     3.03   0.64106  0.9404
 2.25000    5.07     3.04   0.64113  0.9404
 2.20000    5.07     3.04   0.64094  0.9405
 2.15000    5.07     3.05   0.64107  0.9407
 2.10000    5.07     3.03   0.64107  0.9409
 2.05000    5.07     3.03   0.64095  0.9409
 2.00000    5.07     3.02   0.64101  0.9410
 1.95000    5.07     3.04   0.64093  0.9412
 1.90000    5.07     3.03   0.64083  0.9414
 1.85000    5.08     3.04   0.64110  0.9414
 1.80000    5.09     3.04   0.64125  0.9414
 1.75000    5.09     3.02   0.64136  0.9419
 1.70000    5.10     3.01   0.64132  0.9422
 1.65000    5.10     3.02   0.64182  0.9425
 1.60000    5.10     3.02   0.64245  0.9427
 1.55000    5.10     3.03   0.64320  0.9427
 1.50000    5.11     3.02   0.64396  0.9427
 1.45000    5.11     3.01   0.64454  0.9429
 1.40000    5.11     3.02   0.64527  0.9432
 1.35000    5.11     3.01   0.64594  0.9431
 1.30000    5.12     3.02   0.64634  0.9432
 1.25000    5.12     3.00   0.64713  0.9432
 1.20000    5.13     3.01   0.64766  0.9435
 1.15000    5.13     3.01   0.64843  0.9436
 1.10000    5.14     3.00   0.64923  0.9435
 1.05000    5.14     3.02   0.64964  0.9434
 1.00000    5.14     3.00   0.65003  0.9436
 0.95000    5.14     3.00   0.65052  0.9436
 0.90000    5.14     3.02   0.65100  0.9434
 0.85000    5.15     3.00   0.65168  0.9433
 0.80000    5.14     3.00   0.65193  0.9438
 0.75000    5.14     3.01   0.65248  0.9437
 0.70000    5.13     2.99   0.65287  0.9437
 0.65000    5.13     3.01   0.65298  0.9434
 0.60000    5.12     3.00   0.65323  0.9433
 0.55000    5.12     3.00   0.65361  0.9434
 0.50000    5.12     3.01   0.65410  0.9433
 0.45000    5.12     2.99   0.65430  0.9435
 0.40000    5.11     3.00   0.65465  0.9434
 0.35000    5.11     2.99   0.65491  0.9435
 0.30000    5.11     3.00   0.65511  0.9437
 0.25000    5.11     3.00   0.65559  0.9438
 0.20000    5.12     2.99   0.65579  0.9439
 0.15000    5.12     2.99   0.65602  0.9439
 0.10000    5.13     2.99   0.65630  0.9440
 0.05000    5.13     3.00   0.65621  0.9440
-0.00000    5.13     3.00   0.65656  0.9441
