 Field[T] Tsmpl[K] Tcntr[K] Signal   Mirror[MM]
 0.00000    5.88     2.99   1.35800  0.9411
 0.05000    5.87     2.99   1.35830  0.9413
 0.10000    5.87     2.99   1.35852  0.9412
 0.15000    5.86     2.99   1.35934  0.9411
 0.20000    5.86     3.00   1.35985  0.9410
 0.25000    5.86     2.99   1.35994  0.9408
 0.30000    5.86     3.00   1.36006  0.9412
 0.35000    5.86     2.99   1.36087  0.9410
 0.40000    5.87     3.00   1.36291  0.9411
 0.45000    5.87     2.99   1.36104  0.9410
 0.50000    5.87     2.99   1.36094  0.9411
 0.55000    5.86     2.98   1.36152  0.9409
 0.60000    5.86     2.98   1.36166  0.9411
 0.65000    5.85     2.98   1.36155  0.9410
 0.70000    5.84     2.99   1.36258  0.9406
 0.75000    5.84     2.98   1.36232  0.9407
 0.80000    5.83     2.98   1.36254  0.9407
 0.85000    5.82     2.98   1.36332  0.9408
 0.90000    5.81     2.98   1.36354  0.9407
 0.95000    5.80     2.97   1.36319  0.9408
 1.00000    5.79     2.98   1.36330  0.9409
 1.05000    5.79     2.97   1.36297  0.9409
 1.10000    5.78     2.97   1.36306  0.9408
 1.15000    5.77     2.97   1.36235  0.9409
 1.20000    5.76     2.97   1.36231  0.9409
 1.25000    5.74     2.96   1.36234  0.9409
 1.30000    5.73     2.95   1.36218  0.9409
 1.35000    5.72     2.95   1.36172  0.9408
 1.40000    5.70     2.94   1.36180  0.9408
 1.45000    5.68     2.92   1.36032  0.9409
 1.50000    5.65     2.91   1.36035  0.9410
 1.55000    5.62     2.90   1.35970  0.9408
 1.60000    5.57     2.89   1.35959  0.9409
 1.65000    5.53     2.87   1.35867  0.9409
 1.70000    5.48     2.88   1.35892  0.9409
 1.75000    5.44     2.89   1.35872  0.9411
 1.80000    5.41     2.90   1.35863  0.9410
 1.85000    5.38     2.90   1.35759  0.9409
 1.90000    5.36     2.90   1.35673  0.9407
 1.95000    5.34     2.91   1.35557  0.9406
 2.00000    5.33     2.93   1.35463  0.9404
 2.05000    5.33     2.93   1.35469  0.9406
 2.10000    5.33     2.93   1.35401  0.9404
 2.15000    5.33     2.94   1.35335  0.9403
 2.20000    5.34     2.94   1.35310  0.9404
 2.25000    5.35     2.94   1.35374  0.9401
 2.30000    5.35     2.95   1.35389  0.9399
 2.35000    5.35     2.96   1.35470  0.9399
 2.40000    5.35     2.97   1.35447  0.9395
 2.45000    5.35     2.97   1.35565  0.9395
 2.50000    5.36     2.97   1.35589  0.9398
 2.55000    5.36     2.97   1.35662  0.9396
 2.60000    5.36     2.99   1.35713  0.9396
 2.65000    5.38     3.00   1.35822  0.9396
 2.70000    5.39     2.99   1.35885  0.9395
 2.75000    5.39     2.99   1.35951  0.9393
 2.80000    5.40     2.99   1.36033  0.9393
 2.85000    5.40     3.01   1.36103  0.9393
 2.90000    5.41     3.02   1.35995  0.9394
 2.95000    5.42     3.00   1.36072  0.9393
 3.00000    5.42     3.01   1.36197  0.9392
 3.05000    5.43     3.01   1.36209  0.9392
 3.10000    5.43     3.01   1.36312  0.9391
 3.15000    5.44     3.02   1.36350  0.9391
 3.20000    5.45     3.02   1.36366  0.9390
 3.25000    5.45     3.01   1.36435  0.9391
 3.30000    5.45     3.01   1.36519  0.9389
 3.35000    5.45     3.01   1.36506  0.9386
 3.40000    5.45     3.01   1.36522  0.9389
 3.45000    5.45     3.02   1.36583  0.9390
 3.50000    5.46     3.01   1.36687  0.9390
 3.55000    5.46     3.02   1.36707  0.9390
 3.60000    5.46     3.02   1.36768  0.9391
 3.65000    5.47     3.03   1.36865  0.9390
 3.70000    5.47     3.02   1.36914  0.9388
 3.75000    5.48     3.02   1.36996  0.9388
 3.80000    5.48     3.02   1.37007  0.9388
 3.85000    5.48     3.01   1.37076  0.9388
 3.90000    5.47     3.01   1.37134  0.9387
 3.95000    5.47     3.03   1.37163  0.9390
 4.00000    5.47     3.01   1.37250  0.9390
 4.00000    5.47     3.01   1.37220  0.9390
 3.95000    5.47     3.01   1.37254  0.9391
 3.90000    5.47     3.02   1.37303  0.9389
 3.85000    5.48     3.03   1.37304  0.9387
 3.80000    5.49     3.05   1.37361  0.9389
 3.75000    5.50     3.04   1.37396  0.9390
 3.70000    5.51     3.04   1.37472  0.9389
 3.65000    5.52     3.05   1.37492  0.9387
 3.60000    5.53     3.05   1.37505  0.9391
 3.55000    5.53     3.04   1.37523  0.9391
 3.50000    5.55     3.05   1.37543  0.9392
 3.45000    5.56     3.06   1.37545  0.9390
 3.40000    5.57     3.05   1.37572  0.9392
 3.35000    5.58     3.05   1.37585  0.9391
 3.30000    5.59     3.06   1.37478  0.9393
 3.25000    5.61     3.04   1.37630  0.9396
 3.20000    5.62     3.04   1.37614  0.9395
 3.15000    5.63     3.04   1.37692  0.9396
 3.10000    5.64     3.04   1.37681  0.9397
 3.05000    5.66     3.05   1.37707  0.9396
 3.00000    5.67     3.04   1.37708  0.9397
 2.95000    5.67     3.03   1.37743  0.9397
 2.90000    5.67     3.03   1.37740  0.9396
 2.85000    5.68     3.03   1.37804  0.9398
 2.80000    5.68     3.03   1.37824  0.9398
 2.75000    5.68     3.02   1.37814  0.9400
 2.70000    5.68     3.02   1.37890  0.9399
 2.65000    5.68     3.03   1.37895  0.9400
 2.60000    5.68     3.02   1.37878  0.9402
 2.55000    5.68     3.01   1.37895  0.9404
 2.50000    5.69     3.01   1.37917  0.9405
 2.45000    5.69     3.01   1.37931  0.9405
 2.40000    5.69     3.02   1.37953  0.9407
 2.35000    5.70     3.01   1.38077  0.9408
 2.30000    5.70     3.02   1.38067  0.9408
 2.25000    5.70     3.00   1.38074  0.9409
 2.20000    5.70     3.01   1.38207  0.9410
 2.15000    5.70     3.01   1.38305  0.9411
 2.10000    5.70     3.00   1.38408  0.9413
 2.05000    5.69     3.01   1.38546  0.9414
 2.00000    5.69     3.01   1.38721  0.9415
 1.95000    5.68     3.01   1.38844  0.9416
 1.90000    5.68     3.02   1.39051  0.9419
 1.85000    5.68     3.00   1.39155  0.9421
 1.80000    5.68     3.00   1.39259  0.9418
 1.75000    5.67     3.01   1.39403  0.9419
 1.70000    5.67     3.01   1.39463  0.9420
 1.65000    5.67     3.05   1.39560  0.9422
 1.60000    5.69     3.03   1.39669  0.9421
 1.55000    5.70     3.03   1.39761  0.9421
 1.50000    5.70     3.02   1.39948  0.9420
 1.45000    5.71     3.03   1.40089  0.9420
 1.40000    5.71     3.03   1.40166  0.9421
 1.35000    5.71     3.02   1.40297  0.9421
 1.30000    5.71     3.02   1.40456  0.9423
 1.25000    5.71     3.01   1.40535  0.9422
 1.20000    5.70     3.02   1.40614  0.9421
 1.15000    5.70     3.02   1.40763  0.9419
 1.10000    5.69     3.01   1.40786  0.9421
 1.05000    5.68     3.01   1.40838  0.9421
 1.00000    5.68     3.00   1.40960  0.9421
 0.95000    5.67     3.01   1.40986  0.9421
 0.90000    5.67     3.02   1.41061  0.9420
 0.85000    5.66     3.00   1.41176  0.9421
 0.80000    5.66     3.00   1.41259  0.9420
 0.75000    5.66     3.00   1.41293  0.9422
 0.70000    5.65     3.00   1.41335  0.9424
 0.65000    5.65     3.01   1.41460  0.9422
 0.60000    5.64     3.00   1.41476  0.9423
 0.55000    5.64     2.99   1.41511  0.9421
 0.50000    5.63     2.98   1.41632  0.9421
 0.45000    5.62     2.99   1.41685  0.9423
 0.40000    5.61     2.99   1.41713  0.9423
 0.35000    5.61     2.99   1.41813  0.9423
 0.30000    5.60     2.99   1.41908  0.9423
 0.25000    5.59     2.98   1.41942  0.9423
 0.20000    5.58     2.98   1.42024  0.9425
 0.15000    5.57     2.98   1.42046  0.9426
 0.10000    5.55     2.98   1.42102  0.9427
 0.05000    5.54     2.98   1.42208  0.9427
-0.00000    5.53     2.98   1.42228  0.9429
