 Field[T] Tsmpl[K] Tcntr[K] Signal   Mirror[MM]
 0.00000    5.11     2.94   1.42682  0.9428
 0.05000    5.11     2.93   1.42644  0.9428
 0.10000    5.11     2.94   1.42692  0.9426
 0.15000    5.11     2.95   1.42681  0.9426
 0.20000    5.11     2.95   1.42701  0.9423
 0.25000    5.11     2.95   1.42654  0.9424
 0.30000    5.10     2.93   1.42660  0.9424
 0.35000    5.09     2.94   1.42640  0.9425
 0.40000    5.09     2.95   1.42584  0.9426
 0.45000    5.08     2.95   1.42555  0.9424
 0.50000    5.07     2.94   1.42505  0.9425
 0.55000    5.06     2.94   1.42488  0.9424
 0.60000    5.05     2.94   1.42415  0.9422
 0.65000    5.05     2.95   1.42412  0.9422
 0.70000    5.04     2.94   1.42363  0.9422
 0.75000    5.03     2.95   1.42333  0.9420
 0.80000    5.02     2.93   1.42322  0.9421
 0.85000    5.01     2.93   1.42270  0.9421
 0.90000    5.01     2.94   1.42150  0.9421
 0.95000    5.00     2.92   1.42169  0.9421
 1.00000    4.99     2.93   1.42149  0.9423
 1.05000    4.99     2.95   1.42152  0.9421
 1.10000    4.99     2.94   1.42094  0.9422
 1.15000    4.99     2.95   1.42046  0.9420
 1.20000    4.99     2.93   1.41949  0.9421
 1.25000    4.99     2.95   1.41940  0.9422
 1.30000    4.99     2.94   1.41861  0.9420
 1.35000    4.99     2.94   1.41792  0.9420
 1.40000    4.99     2.94   1.41750  0.9419
 1.45000    4.99     2.94   1.41716  0.9420
 1.50000    5.00     2.95   1.41582  0.9421
 1.55000    5.01     2.95   1.41370  0.9419
 1.60000    5.02     2.96   1.41243  0.9418
 1.65000    5.03     2.95   1.41145  0.9420
 1.70000    5.03     2.95   1.41045  0.9420
 1.75000    5.02     2.96   1.40972  0.9419
 1.80000    5.02     2.96   1.40849  0.9417
 1.85000    5.02     2.96   1.40668  0.9418
 1.90000    5.02     2.96   1.40540  0.9420
 1.95000    5.02     2.98   1.40409  0.9418
 2.00000    5.02     2.96   1.40264  0.9418
 2.05000    5.02     2.97   1.40146  0.9416
 2.10000    5.02     2.98   1.39955  0.9414
 2.15000    5.02     2.99   1.39976  0.9412
 2.20000    5.03     2.98   1.39924  0.9411
 2.25000    5.03     2.99   1.39864  0.9409
 2.30000    5.03     2.99   1.39821  0.9409
 2.35000    5.04     3.00   1.39810  0.9408
 2.40000    5.04     2.99   1.39839  0.9408
 2.45000    5.04     2.99   1.39802  0.9406
 2.50000    5.03     3.00   1.39835  0.9405
 2.55000    5.03     3.01   1.39856  0.9403
 2.60000    5.03     2.99   1.39868  0.9406
 2.65000    5.03     2.99   1.39857  0.9404
 2.70000    5.03     3.01   1.39872  0.9402
 2.75000    5.03     2.99   1.39914  0.9402
 2.80000    5.03     3.00   1.39923  0.9404
 2.85000    5.03     3.02   1.39912  0.9400
 2.90000    5.03     3.00   1.39911  0.9400
 2.95000    5.04     3.00   1.40011  0.9400
 3.00000    5.04     3.00   1.40052  0.9399
 3.05000    5.05     3.01   1.40117  0.9398
 3.10000    5.05     3.02   1.40155  0.9395
 3.15000    5.06     3.01   1.40129  0.9395
 3.20000    5.06     3.02   1.40116  0.9396
 3.25000    5.07     3.02   1.40093  0.9396
 3.30000    5.08     3.02   1.40112  0.9396
 3.35000    5.09     3.02   1.40149  0.9396
 3.40000    5.09     3.02   1.40179  0.9396
 3.45000    5.10     3.02   1.40191  0.9393
 3.50000    5.11     3.02   1.40196  0.9396
 3.55000    5.13     3.03   1.40263  0.9395
 3.60000    5.15     3.02   1.40268  0.9395
 3.65000    5.16     3.02   1.40349  0.9395
 3.70000    5.17     3.01   1.40387  0.9395
 3.75000    5.18     3.02   1.40351  0.9395
 3.80000    5.20     3.01   1.40411  0.9394
 3.85000    5.21     3.01   1.40453  0.9393
 3.90000    5.22     3.01   1.40498  0.9394
 3.95000    5.22     3.03   1.40490  0.9394
 4.00000    5.23     3.01   1.40507  0.9395
 4.05000    5.23     3.01   1.40549  0.9393
 4.10000    5.23     3.01   1.40517  0.9392
 4.15000    5.23     3.02   1.40442  0.9394
 4.20000    5.24     3.02   1.40580  0.9395
 4.25000    5.25     3.01   1.40600  0.9395
 4.30000    5.26     3.02   1.40599  0.9393
 4.35000    5.28     3.01   1.40568  0.9395
 4.40000    5.30     3.01   1.40492  0.9393
 4.45000    5.32     3.02   1.40548  0.9395
 4.50000    5.33     3.02   1.40542  0.9394
 4.55000    5.34     3.01   1.40536  0.9394
 4.60000    5.36     3.01   1.40544  0.9394
 4.65000    5.37     3.01   1.40600  0.9394
 4.70000    5.39     3.01   1.40570  0.9393
 4.75000    5.40     3.00   1.40633  0.9391
 4.80000    5.39     3.01   1.40631  0.9392
 4.85000    5.39     3.02   1.40617  0.9393
 4.90000    5.39     3.00   1.40608  0.9393
 4.95000    5.39     3.01   1.40645  0.9393
 5.00000    5.39     3.01   1.40635  0.9393
 5.00000    5.39     3.01   1.40689  0.9394
 4.95000    5.39     3.02   1.40675  0.9392
 4.90000    5.39     3.01   1.40694  0.9393
 4.85000    5.39     3.02   1.40645  0.9396
 4.80000    5.39     3.02   1.40674  0.9394
 4.75000    5.39     3.02   1.40707  0.9395
 4.70000    5.39     3.03   1.40697  0.9394
 4.65000    5.39     3.04   1.40617  0.9395
 4.60000    5.39     3.03   1.40753  0.9392
 4.55000    5.39     3.04   1.40742  0.9391
 4.50000    5.39     3.03   1.40741  0.9392
 4.45000    5.39     3.03   1.40735  0.9392
 4.40000    5.39     3.04   1.40770  0.9392
 4.35000    5.40     3.03   1.40819  0.9392
 4.30000    5.41     3.03   1.40814  0.9391
 4.25000    5.41     3.03   1.40814  0.9392
 4.20000    5.41     3.05   1.40812  0.9393
 4.15000    5.42     3.05   1.40825  0.9393
 4.10000    5.43     3.05   1.40818  0.9391
 4.05000    5.44     3.04   1.40807  0.9392
 4.00000    5.46     3.04   1.40806  0.9392
 3.95000    5.47     3.03   1.40818  0.9394
 3.90000    5.49     3.06   1.40819  0.9394
 3.85000    5.51     3.03   1.40801  0.9395
 3.80000    5.52     3.03   1.40816  0.9395
 3.75000    5.52     3.03   1.40806  0.9394
 3.70000    5.53     3.02   1.40802  0.9392
 3.65000    5.53     3.04   1.40849  0.9393
 3.60000    5.54     3.02   1.40791  0.9394
 3.55000    5.54     3.01   1.40797  0.9394
 3.50000    5.54     3.01   1.40798  0.9394
 3.45000    5.53     3.02   1.40777  0.9397
 3.40000    5.53     3.00   1.40794  0.9398
 3.35000    5.53     3.04   1.40772  0.9397
 3.30000    5.53     3.00   1.40773  0.9396
 3.25000    5.53     3.00   1.40851  0.9396
 3.20000    5.53     3.00   1.40737  0.9397
 3.15000    5.52     3.01   1.40717  0.9397
 3.10000    5.52     3.01   1.40698  0.9398
 3.05000    5.52     3.00   1.40642  0.9399
 3.00000    5.52     3.01   1.40642  0.9401
 2.95000    5.52     3.00   1.40576  0.9400
 2.90000    5.52     3.01   1.40612  0.9402
 2.85000    5.52     3.02   1.40597  0.9402
 2.80000    5.53     3.00   1.40566  0.9401
 2.75000    5.52     3.01   1.40582  0.9403
 2.70000    5.52     3.01   1.40645  0.9403
 2.65000    5.52     2.99   1.40629  0.9406
 2.60000    5.52     3.02   1.40624  0.9406
 2.55000    5.52     2.99   1.40643  0.9405
 2.50000    5.52     3.00   1.40627  0.9407
 2.45000    5.52     2.99   1.40655  0.9409
 2.40000    5.52     3.01   1.40692  0.9408
 2.35000    5.52     3.01   1.40702  0.9408
 2.30000    5.53     3.01   1.40679  0.9411
 2.25000    5.53     3.00   1.40769  0.9411
 2.20000    5.54     3.00   1.40743  0.9415
 2.15000    5.54     3.01   1.40864  0.9416
 2.10000    5.55     3.01   1.41062  0.9417
 2.05000    5.56     2.99   1.41149  0.9419
 2.00000    5.56     3.00   1.41256  0.9420
 1.95000    5.56     3.00   1.41443  0.9420
 1.90000    5.56     3.00   1.41626  0.9421
 1.85000    5.56     3.02   1.41789  0.9421
 1.80000    5.57     3.00   1.41901  0.9422
 1.75000    5.58     3.03   1.42021  0.9422
 1.70000    5.59     3.02   1.42183  0.9422
 1.65000    5.60     3.01   1.42313  0.9423
 1.60000    5.62     3.02   1.42403  0.9421
 1.55000    5.63     3.02   1.42522  0.9423
 1.50000    5.64     3.00   1.42675  0.9424
 1.45000    5.64     3.01   1.42863  0.9422
 1.40000    5.64     3.01   1.42968  0.9422
 1.35000    5.64     3.02   1.43082  0.9421
 1.30000    5.65     3.01   1.43178  0.9421
 1.25000    5.65     3.00   1.43319  0.9420
 1.20000    5.65     3.01   1.43372  0.9421
 1.15000    5.65     3.01   1.43467  0.9420
 1.10000    5.65     3.02   1.43516  0.9424
 1.05000    5.65     3.00   1.43635  0.9423
 1.00000    5.65     2.99   1.43653  0.9421
 0.95000    5.64     3.00   1.43787  0.9422
 0.90000    5.63     3.00   1.43819  0.9422
 0.85000    5.63     3.01   1.43964  0.9422
 0.80000    5.62     3.00   1.44069  0.9422
 0.75000    5.61     3.00   1.44094  0.9422
 0.70000    5.60     3.00   1.44137  0.9422
 0.65000    5.59     2.99   1.44114  0.9423
 0.60000    5.58     3.00   1.44188  0.9423
 0.55000    5.57     3.00   1.44316  0.9425
 0.50000    5.55     3.00   1.44380  0.9426
 0.45000    5.54     3.00   1.44310  0.9428
 0.40000    5.52     3.00   1.44491  0.9426
 0.35000    5.51     3.01   1.44564  0.9428
 0.30000    5.50     2.99   1.44606  0.9428
 0.25000    5.49     2.99   1.44640  0.9427
 0.20000    5.48     2.99   1.44670  0.9429
 0.15000    5.47     3.00   1.44713  0.9430
 0.10000    5.46     3.01   1.44803  0.9429
 0.05000    5.45     2.99   1.44871  0.9429
-0.00000    5.44     2.99   1.44924  0.9429
