 Field[T] Tsmpl[K] Tcntr[K] Signal   Mirror[MM]
 0.00000    5.19     2.96   1.59985  0.9637
 0.05000    5.18     2.97   1.59850  0.9638
 0.10000    5.17     2.95   1.59759  0.9636
 0.15000    5.16     2.97   1.59605  0.9635
 0.20000    5.16     2.96   1.59139  0.9635
 0.25000    5.15     2.96   1.59126  0.9634
 0.30000    5.14     2.94   1.58855  0.9638
 0.35000    5.12     2.95   1.58859  0.9633
 0.40000    5.12     2.95   1.58913  0.9633
 0.45000    5.11     2.94   1.58766  0.9630
 0.50000    5.11     2.94   1.58664  0.9632
 0.55000    5.10     2.93   1.58555  0.9631
 0.60000    5.09     2.94   1.58356  0.9632
 0.65000    5.09     2.94   1.58331  0.9632
 0.70000    5.08     2.94   1.58210  0.9632
 0.75000    5.07     2.92   1.58061  0.9629
 0.80000    5.07     2.94   1.57976  0.9631
 0.85000    5.06     2.94   1.57896  0.9631
 0.90000    5.05     2.94   1.57679  0.9631
 0.95000    5.04     2.93   1.57695  0.9631
 1.00000    5.03     2.94   1.57547  0.9630
 1.05000    5.01     2.93   1.57359  0.9631
 1.10000    4.99     2.92   1.57211  0.9629
 1.15000    4.97     2.93   1.57054  0.9629
 1.20000    4.94     2.92   1.56900  0.9628
 1.25000    4.92     2.94   1.56716  0.9629
 1.30000    4.90     2.93   1.56511  0.9629
 1.35000    4.88     2.94   1.56431  0.9627
 1.40000    4.86     2.93   1.56271  0.9627
 1.45000    4.83     2.92   1.56139  0.9626
 1.50000    4.82     2.94   1.56028  0.9624
 1.55000    4.80     2.94   1.55825  0.9626
 1.60000    4.79     2.95   1.55647  0.9625
 1.65000    4.78     2.95   1.55459  0.9625
 1.70000    4.77     2.97   1.55268  0.9623
 1.75000    4.76     2.94   1.55077  0.9623
 1.80000    4.75     2.95   1.54921  0.9620
 1.85000    4.74     2.96   1.54924  0.9617
 1.90000    4.74     2.97   1.54833  0.9617
 1.95000    4.72     2.96   1.54739  0.9616
 2.00000    4.71     2.97   1.54807  0.9615
 2.05000    4.70     2.98   1.54771  0.9613
 2.10000    4.70     2.98   1.54751  0.9612
 2.15000    4.70     2.98   1.54720  0.9610
 2.20000    4.70     2.96   1.54791  0.9609
 2.25000    4.69     2.97   1.54787  0.9609
 2.30000    4.69     2.97   1.54792  0.9607
 2.35000    4.70     2.99   1.54899  0.9604
 2.40000    4.70     2.98   1.54918  0.9601
 2.45000    4.70     2.98   1.54928  0.9601
 2.50000    4.71     3.00   1.55004  0.9603
 2.55000    4.71     2.99   1.54977  0.9601
 2.60000    4.71     2.99   1.55044  0.9601
 2.65000    4.73     3.00   1.55103  0.9599
 2.70000    4.74     2.99   1.55145  0.9600
 2.75000    4.75     2.99   1.55163  0.9600
 2.80000    4.78     3.00   1.55206  0.9599
 2.85000    4.79     2.99   1.55285  0.9596
 2.90000    4.80     2.99   1.55307  0.9597
 2.95000    4.80     3.00   1.55305  0.9596
 3.00000    4.80     3.00   1.55432  0.9596
 3.05000    4.80     3.01   1.55411  0.9596
 3.10000    4.80     3.00   1.55470  0.9597
 3.15000    4.80     3.01   1.55516  0.9596
 3.20000    4.80     3.00   1.55528  0.9595
 3.25000    4.80     3.02   1.55534  0.9596
 3.30000    4.81     3.01   1.55545  0.9595
 3.35000    4.82     3.02   1.55657  0.9596
 3.40000    4.83     3.01   1.55667  0.9594
 3.45000    4.83     3.03   1.55682  0.9595
 3.50000    4.85     3.02   1.55628  0.9596
 3.55000    4.85     3.02   1.55633  0.9596
 3.60000    4.86     3.02   1.55612  0.9595
 3.65000    4.87     3.02   1.55610  0.9597
 3.70000    4.88     3.02   1.55611  0.9596
 3.75000    4.88     3.02   1.55633  0.9596
 3.80000    4.89     3.03   1.55629  0.9595
 3.85000    4.89     3.02   1.55720  0.9595
 3.90000    4.89     3.02   1.55664  0.9595
 3.95000    4.88     3.02   1.55655  0.9595
 4.00000    4.88     3.03   1.55666  0.9594
 4.00000    4.87     3.02   1.55675  0.9594
 3.95000    4.87     3.02   1.55641  0.9593
 3.90000    4.86     3.03   1.55678  0.9593
 3.85000    4.86     3.05   1.55673  0.9594
 3.80000    4.87     3.03   1.55668  0.9595
 3.75000    4.88     3.05   1.55657  0.9593
 3.70000    4.89     3.06   1.55667  0.9592
 3.65000    4.90     3.05   1.55702  0.9594
 3.60000    4.91     3.05   1.55744  0.9594
 3.55000    4.93     3.07   1.55710  0.9593
 3.50000    4.95     3.06   1.55643  0.9593
 3.45000    4.97     3.06   1.55698  0.9593
 3.40000    4.99     3.05   1.55583  0.9595
 3.35000    5.01     3.05   1.55623  0.9594
 3.30000    5.02     3.06   1.55637  0.9596
 3.25000    5.03     3.05   1.55649  0.9597
 3.20000    5.04     3.06   1.55637  0.9594
 3.15000    5.05     3.06   1.55610  0.9594
 3.10000    5.05     3.05   1.55569  0.9594
 3.05000    5.05     3.06   1.55597  0.9592
 3.00000    5.07     3.07   1.55570  0.9592
 2.95000    5.07     3.06   1.55488  0.9593
 2.90000    5.08     3.05   1.55455  0.9594
 2.85000    5.08     3.05   1.55435  0.9594
 2.80000    5.09     3.07   1.55403  0.9594
 2.75000    5.09     3.05   1.55377  0.9593
 2.70000    5.10     3.06   1.55346  0.9595
 2.65000    5.11     3.04   1.55320  0.9596
 2.60000    5.12     3.05   1.55288  0.9596
 2.55000    5.13     3.05   1.55199  0.9597
 2.50000    5.14     3.04   1.55259  0.9597
 2.45000    5.15     3.04   1.55209  0.9598
 2.40000    5.15     3.03   1.55188  0.9600
 2.35000    5.16     3.05   1.55148  0.9600
 2.30000    5.18     3.04   1.55158  0.9601
 2.25000    5.18     3.04   1.55074  0.9603
 2.20000    5.18     3.03   1.55123  0.9602
 2.15000    5.18     3.04   1.55121  0.9602
 2.10000    5.18     3.02   1.55049  0.9606
 2.05000    5.18     3.03   1.54959  0.9607
 2.00000    5.17     3.03   1.54954  0.9609
 1.95000    5.17     3.02   1.54980  0.9607
 1.90000    5.16     3.02   1.55005  0.9608
 1.85000    5.16     3.01   1.55023  0.9611
 1.80000    5.15     3.02   1.55072  0.9614
 1.75000    5.14     3.02   1.55099  0.9616
 1.70000    5.14     3.01   1.55185  0.9618
 1.65000    5.13     3.01   1.55341  0.9619
 1.60000    5.13     3.01   1.55512  0.9620
 1.55000    5.12     3.00   1.55653  0.9621
 1.50000    5.11     3.02   1.55855  0.9621
 1.45000    5.11     3.00   1.55902  0.9621
 1.40000    5.11     3.00   1.56005  0.9620
 1.35000    5.10     3.01   1.56139  0.9622
 1.30000    5.09     3.02   1.56281  0.9624
 1.25000    5.09     3.01   1.56435  0.9624
 1.20000    5.09     3.00   1.56586  0.9623
 1.15000    5.09     3.00   1.56686  0.9622
 1.10000    5.08     3.00   1.56782  0.9623
 1.05000    5.08     3.01   1.56919  0.9624
 1.00000    5.08     2.99   1.57004  0.9627
 0.95000    5.07     3.00   1.57095  0.9626
 0.90000    5.07     3.01   1.57225  0.9626
 0.85000    5.07     2.99   1.57294  0.9626
 0.80000    5.07     2.99   1.57343  0.9626
 0.75000    5.07     3.00   1.57435  0.9628
 0.70000    5.07     3.00   1.57465  0.9630
 0.65000    5.07     3.00   1.57536  0.9626
 0.60000    5.07     3.00   1.57620  0.9627
 0.55000    5.07     3.00   1.57627  0.9628
 0.50000    5.07     2.99   1.57698  0.9629
 0.45000    5.07     3.01   1.57776  0.9628
 0.40000    5.06     3.00   1.57777  0.9628
 0.35000    5.06     2.99   1.57864  0.9631
 0.30000    5.06     2.99   1.57931  0.9630
 0.25000    5.05     3.00   1.57949  0.9630
 0.20000    5.05     2.99   1.58024  0.9632
 0.15000    5.04     3.01   1.58003  0.9632
 0.10000    5.04     3.00   1.57978  0.9632
 0.05000    5.03     3.00   1.58136  0.9631
-0.00000    5.03     2.99   1.57986  0.9632
