 Field[T] Tsmpl[K] Tcntr[K] Signal   Mirror[MM]
 0.00000    4.97     3.01   0.71597  7.8399
 0.05000    4.97     3.00   0.71581  7.8385
 0.10000    4.97     3.01   0.71509  7.8386
 0.15000    4.97     3.00   0.71553  7.8379
 0.20000    4.97     3.02   0.71455  7.8372
 0.25000    4.97     3.00   0.71398  7.8365
 0.30000    4.97     3.00   0.71471  7.8342
 0.35000    4.97     2.99   0.71422  7.8325
 0.40000    4.98     2.99   0.71518  7.8307
 0.45000    4.99     3.01   0.71573  7.8292
 0.50000    5.00     3.00   0.71686  7.8285
 0.55000    5.01     2.99   0.71848  7.8281
 0.60000    5.03     2.99   0.71959  7.8278
 0.65000    5.04     3.01   0.72294  7.8282
 0.70000    5.06     3.01   0.72357  7.8279
 0.75000    5.07     2.99   0.72513  7.8276
 0.80000    5.07     3.00   0.72468  7.8282
 0.85000    5.08     2.99   0.72639  7.8285
 0.90000    5.08     2.99   0.72702  7.8287
 0.95000    5.08     2.99   0.72896  7.8306
 1.00000    5.08     2.98   0.73031  7.8295
 1.05000    5.08     3.01   0.72900  7.8308
 1.10000    5.08     2.99   0.72932  7.8304
 1.15000    5.08     2.99   0.72923  7.8299
 1.20000    5.08     2.99   0.72985  7.8311
 1.25000    5.08     2.98   0.73000  7.8312
 1.30000    5.08     2.98   0.72895  7.8323
 1.35000    5.08     2.98   0.72965  7.8326
 1.40000    5.08     2.99   0.73142  7.8320
 1.45000    5.08     2.98   0.73168  7.8319
 1.50000    5.07     2.97   0.73154  7.8328
 1.55000    5.06     2.99   0.73132  7.8333
 1.60000    5.05     2.98   0.73093  7.8333
 1.65000    5.04     2.99   0.73069  7.8333
 1.70000    5.02     2.98   0.73181  7.8331
 1.75000    5.01     2.99   0.73290  7.8333
 1.80000    4.99     2.98   0.73169  7.8340
 1.85000    4.98     2.99   0.73279  7.8340
 1.90000    4.97     3.01   0.73227  7.8345
 1.95000    4.97     2.99   0.73242  7.8345
 2.00000    4.96     2.99   0.73078  7.8352
 2.00000    4.95     2.99   0.73119  7.8358
 1.95000    4.95     3.00   0.73141  7.8346
 1.90000    4.94     2.99   0.73163  7.8346
 1.85000    4.94     3.02   0.73237  7.8344
 1.80000    4.94     3.00   0.73256  7.8340
 1.75000    4.94     3.00   0.73507  7.8339
 1.70000    4.95     3.00   0.73421  7.8337
 1.65000    4.95     3.00   0.73232  7.8336
 1.60000    4.96     3.02   0.73189  7.8331
 1.55000    4.96     3.00   0.73148  7.8338
 1.50000    4.97     3.00   0.73340  7.8323
 1.45000    4.97     3.00   0.73339  7.8323
 1.40000    4.97     3.01   0.73213  7.8326
 1.35000    4.99     3.01   0.73273  7.8324
 1.30000    4.99     3.02   0.73159  7.8317
 1.25000    4.99     3.02   0.73099  7.8314
 1.20000    5.00     3.03   0.73093  7.8307
 1.15000    5.01     3.03   0.72959  7.8308
 1.10000    5.02     3.03   0.72944  7.8306
 1.05000    5.02     3.04   0.72969  7.8300
 1.00000    5.03     3.03   0.72982  7.8298
 0.95000    5.04     3.02   0.72984  7.8295
 0.90000    5.04     3.02   0.72993  7.8291
 0.85000    5.04     3.02   0.73021  7.8286
 0.80000    5.06     3.02   0.72939  7.8288
 0.75000    5.06     3.02   0.72719  7.8280
 0.70000    5.06     3.02   0.72465  7.8281
 0.65000    5.07     3.01   0.72406  7.8282
 0.60000    5.08     3.02   0.72300  7.8285
 0.55000    5.09     3.02   0.71990  7.8286
 0.50000    5.10     3.01   0.71828  7.8292
 0.45000    5.11     3.01   0.71708  7.8301
 0.40000    5.11     3.01   0.71501  7.8326
 0.35000    5.12     3.01   0.71468  7.8329
 0.30000    5.13     3.00   0.71325  7.8345
 0.25000    5.13     3.01   0.71349  7.8370
 0.20000    5.13     3.01   0.71541  7.8386
 0.15000    5.13     3.00   0.71590  7.8390
 0.10000    5.13     3.00   0.71599  7.8398
 0.05000    5.13     3.02   0.71773  7.8405
-0.00000    5.13     3.00   0.71764  7.8398
