 Field[T] Tsmpl[K] Tcntr[K] Signal Mirror[MM] RefSignal
 4.00000    4.85     3.06   1.22773  2.5373   5.82650
 3.95000    4.86     3.04   1.22818  2.5373   5.82648
 3.90000    4.86     3.05   1.22806  2.5371   5.82525
 3.85000    4.89     3.07   1.22854  2.5373   5.82713
 3.80000    4.90     3.05   1.22873  2.5373   5.82603
 3.75000    4.92     3.05   1.22918  2.5372   5.82526
 3.70000    4.93     3.05   1.22923  2.5371   5.82703
 3.65000    4.94     3.07   1.22939  2.5372   5.82777
 3.60000    4.97     3.06   1.22949  2.5372   5.82716
 3.55000    4.98     3.06   1.22968  2.5370   5.82989
 3.50000    5.00     3.06   1.23037  2.5369   5.82932
 3.45000    5.01     3.06   1.23049  2.5371   5.83112
 3.40000    5.03     3.07   1.23011  2.5369   5.83073
 3.35000    5.06     3.08   1.23072  2.5371   5.83002
 3.30000    5.07     3.06   1.23114  2.5368   5.83311
 3.25000    5.09     3.06   1.23158  2.5367   5.83249
 3.20000    5.10     3.06   1.23158  2.5367   5.83191
 3.15000    5.12     3.05   1.23172  2.5369   5.83412
 3.10000    5.13     3.05   1.23215  2.5368   5.83499
 3.05000    5.15     3.06   1.23232  2.5367   5.83230
 3.00000    5.16     3.05   1.23258  2.5367   5.83741
 2.95000    5.16     3.05   1.23280  2.5368   5.83345
 2.90000    5.17     3.06   1.23239  2.5367   5.83430
 2.85000    5.17     3.03   1.23342  2.5365   5.83599
 2.80000    5.17     3.03   1.23349  2.5364   5.83692
 2.75000    5.16     3.04   1.23354  2.5363   5.83425
 2.70000    5.16     3.02   1.23391  2.5365   5.83871
 2.65000    5.16     3.02   1.23432  2.5363   5.83869
 2.60000    5.15     3.02   1.23396  2.5363   5.83895
 2.55000    5.14     3.02   1.23444  2.5363   5.83724
 2.50000    5.14     3.02   1.23442  2.5361   5.83785
 2.45000    5.13     3.04   1.23518  2.5360   5.83897
 2.40000    5.13     3.01   1.23513  2.5359   5.83901
 2.35000    5.12     3.01   1.23479  2.5360   5.83790
 2.30000    5.11     3.01   1.23558  2.5359   5.83932
 2.25000    5.10     3.01   1.23555  2.5358   5.84168
 2.20000    5.10     3.01   1.23624  2.5355   5.83993
 2.15000    5.09     3.03   1.23519  2.5356   5.83918
 2.10000    5.09     3.01   1.23625  2.5353   5.83923
 2.05000    5.08     3.00   1.23652  2.5353   5.84041
 2.00000    5.07     3.00   1.23659  2.5352   5.83988
 1.95000    5.07     3.01   1.23683  2.5351   5.84100
 1.90000    5.07     3.02   1.23764  2.5350   5.84290
 1.85000    5.06     3.00   1.23697  2.5348   5.84203
 1.80000    5.06     3.00   1.23740  2.5348   5.84376
 1.75000    5.06     3.01   1.23759  2.5347   5.84323
 1.70000    5.06     3.00   1.23713  2.5345   5.84480
 1.65000    5.05     3.01   1.23674  2.5345   5.84419
 1.60000    5.04     3.02   1.23703  2.5342   5.84367
 1.55000    5.04     3.00   1.23691  2.5339   5.84335
 1.50000    5.04     3.00   1.23691  2.5338   5.84458
 1.45000    5.02     3.00   1.23683  2.5337   5.84380
 1.40000    5.01     3.00   1.23597  2.5333   5.84431
 1.35000    5.01     3.00   1.23592  2.5330   5.84403
 1.30000    5.00     3.01   1.23509  2.5326   5.84550
 1.25000    4.99     2.99   1.23444  2.5324   5.84412
 1.20000    4.98     2.99   1.23401  2.5320   5.84954
 1.15000    4.96     3.00   1.23230  2.5317   5.84805
 1.10000    4.96     2.99   1.22925  2.5313   5.84753
 1.05000    4.94     3.02   1.22593  2.5308   5.84877
 1.00000    4.93     2.99   1.22051  2.5304   5.84774
 0.95000    4.92     3.00   1.21373  2.5306   5.84991
 0.90000    4.90     3.01   1.20882  2.5312   5.84872
 0.85000    4.89     3.00   1.20544  2.5320   5.84771
 0.80000    4.86     3.00   1.20400  2.5330   5.85098
 0.75000    4.84     3.01   1.20379  2.5337   5.85340
 0.70000    4.82     2.99   1.20396  2.5343   5.85079
 0.65000    4.80     2.99   1.20466  2.5349   5.85212
 0.60000    4.78     2.99   1.20522  2.5352   5.85020
 0.55000    4.77     2.99   1.20582  2.5357   5.85448
 0.50000    4.76     3.00   1.20685  2.5358   5.85055
 0.45000    4.76     2.99   1.20747  2.5359   5.85131
 0.40000    4.75     2.99   1.20822  2.5360   5.85197
 0.35000    4.74     2.99   1.20845  2.5362   5.85339
 0.30000    4.73     2.99   1.20905  2.5364   5.85368
 0.25000    4.73     2.99   1.20970  2.5366   5.85525
 0.20000    4.73     3.01   1.20989  2.5367   5.85859
 0.15000    4.73     2.99   1.21064  2.5366   5.85838
 0.10000    4.73     2.99   1.21129  2.5368   5.85725
 0.05000    4.72     2.99   1.21156  2.5367   5.85850
-0.00000    4.72     2.99   1.21154  2.5368   5.86124
