 Field[T] Tsmpl[K] Tcntr[K] Signal Mirror[MM] RefSignal
 5.00000    5.05     3.05   1.45455  3.0951   3.40277
 4.93750    5.05     3.05   1.45334  3.0946   3.39878
 4.87500    5.06     3.06   1.45284  3.0943   3.39600
 4.81250    5.07     3.07   1.45303  3.0942   3.39627
 4.75000    5.09     3.05   1.45428  3.0943   3.40082
 4.68750    5.10     3.06   1.45646  3.0943   3.40307
 4.62500    5.12     3.06   1.45567  3.0944   3.39806
 4.56250    5.13     3.06   1.45543  3.0943   3.39600
 4.50000    5.15     3.08   1.45513  3.0944   3.39498
 4.43750    5.17     3.06   1.45528  3.0943   3.39473
 4.37500    5.19     3.06   1.45518  3.0940   3.39530
 4.31250    5.22     3.07   1.45686  3.0943   3.40123
 4.25000    5.23     3.07   1.46043  3.0941   3.41005
 4.18750    5.26     3.08   1.46298  3.0942   3.41381
 4.12500    5.29     3.08   1.46403  3.0942   3.41463
 4.06250    5.30     3.08   1.46458  3.0942   3.41689
 4.00000    5.32     3.09   1.46475  3.0943   3.41721
 3.93750    5.34     3.08   1.46504  3.0942   3.41695
 3.87500    5.34     3.08   1.46506  3.0942   3.41721
 3.81250    5.36     3.08   1.46523  3.0941   3.41760
 3.75000    5.39     3.08   1.46535  3.0942   3.41563
 3.68750    5.41     3.10   1.46480  3.0943   3.41402
 3.62500    5.42     3.08   1.46428  3.0943   3.41257
 3.56250    5.43     3.08   1.46358  3.0943   3.41091
 3.50000    5.44     3.07   1.46321  3.0941   3.40961
 3.43750    5.45     3.08   1.46292  3.0941   3.40825
 3.37500    5.47     3.07   1.46182  3.0942   3.40649
 3.31250    5.48     3.06   1.46095  3.0943   3.40580
 3.25000    5.48     3.08   1.46076  3.0941   3.40376
 3.18750    5.50     3.07   1.46030  3.0940   3.40286
 3.12500    5.51     3.07   1.45965  3.0940   3.40048
 3.06250    5.52     3.06   1.45807  3.0939   3.39704
 3.00000    5.52     3.06   1.45743  3.0939   3.39691
 2.93750    5.52     3.06   1.45618  3.0938   3.39544
 2.87500    5.52     3.05   1.45267  3.0937   3.38645
 2.81250    5.49     3.03   1.45106  3.0936   3.38342
 2.75000    5.47     3.02   1.45032  3.0936   3.38009
 2.68750    5.45     3.02   1.44851  3.0936   3.38037
 2.62500    5.43     3.01   1.44723  3.0933   3.37613
 2.56250    5.41     3.02   1.44758  3.0939   3.37666
 2.50000    5.40     3.01   1.44626  3.0936   3.37638
 2.43750    5.39     3.00   1.44398  3.0935   3.37368
 2.37500    5.38     3.01   1.44335  3.0935   3.37713
 2.31250    5.36     3.00   1.44056  3.0935   3.37210
 2.25000    5.35     3.01   1.43786  3.0934   3.37240
 2.18750    5.34     3.01   1.43517  3.0935   3.37390
 2.12500    5.34     3.00   1.43302  3.0936   3.37537
 2.06250    5.33     3.01   1.43215  3.0939   3.37781
 2.00000    5.32     3.00   1.42984  3.0943   3.37272
 1.93750    5.31     3.00   1.43017  3.0947   3.37369
 1.87500    5.30     3.01   1.43324  3.0947   3.37449
 1.81250    5.29     3.01   1.43664  3.0950   3.37439
 1.75000    5.28     3.00   1.43909  3.0948   3.37266
 1.68750    5.27     3.00   1.44136  3.0950   3.37112
 1.62500    5.27     3.00   1.44431  3.0952   3.37372
 1.56250    5.26     3.01   1.44566  3.0952   3.37403
 1.50000    5.26     3.00   1.44800  3.0950   3.37982
 1.43750    5.25     3.01   1.44867  3.0951   3.37761
 1.37500    5.25     3.00   1.45114  3.0949   3.37868
 1.31250    5.24     3.00   1.45171  3.0949   3.37550
 1.25000    5.23     3.00   1.45286  3.0949   3.37766
 1.18750    5.23     3.02   1.45356  3.0948   3.37911
 1.12500    5.22     3.00   1.45398  3.0948   3.37781
 1.06250    5.22     3.00   1.45405  3.0949   3.37778
 1.00000    5.21     2.99   1.45460  3.0948   3.37763
 0.93750    5.21     3.00   1.45619  3.0946   3.37707
 0.87500    5.20     2.99   1.45505  3.0946   3.37705
 0.81250    5.19     3.00   1.45582  3.0945   3.37678
 0.75000    5.19     3.01   1.45682  3.0946   3.37905
 0.68750    5.17     3.00   1.45842  3.0946   3.37986
 0.62500    5.15     2.99   1.45875  3.0945   3.37932
 0.56250    5.14     2.99   1.45779  3.0946   3.37825
 0.50000    5.13     2.99   1.46021  3.0944   3.38009
 0.43750    5.11     2.99   1.46271  3.0945   3.38630
 0.37500    5.11     2.99   1.46550  3.0944   3.39078
 0.31250    5.11     2.99   1.46588  3.0945   3.39154
 0.25000    5.11     3.00   1.46472  3.0944   3.38706
 0.18750    5.11     3.00   1.46323  3.0944   3.38342
 0.12500    5.10     2.98   1.46108  3.0945   3.37707
 0.06250    5.09     2.98   1.46225  3.0943   3.37989
 0.00000    5.07     3.00   1.46419  3.0942   3.38400
