 Field[T] Tsmpl[K] Tcntr[K] Signal   Mirror[MM]
 0.00000    1.76     1.76   0.30148  -12.0376
 0.05000    1.76     1.76   0.30098  -12.0377
 0.10000    1.76     1.76   0.30092  -12.0370
 0.15000    1.76     1.76   0.30106  -12.0381
 0.20000    1.76     1.76   0.30003  -12.0383
 0.25000    1.76     1.76   0.29936  -12.0391
 0.30000    1.76     1.76   0.29914  -12.0395
 0.35000    1.76     1.76   0.29794  -12.0428
 0.40000    1.76     1.76   0.29826  -12.0439
 0.45000    1.76     1.76   0.29927  -12.0452
 0.50000    1.76     1.76   0.30026  -12.0471
 0.55000    1.76     1.76   0.30059  -12.0486
 0.60000    1.76     1.76   0.30155  -12.0488
 0.65000    1.76     1.76   0.30301  -12.0503
 0.70000    1.76     1.76   0.30425  -12.0514
 0.75000    1.76     1.76   0.30517  -12.0518
 0.80000    1.76     1.76   0.30690  -12.0515
 0.85000    1.76     1.76   0.30793  -12.0516
 0.90000    1.76     1.76   0.30835  -12.0513
 0.95000    1.76     1.76   0.30863  -12.0512
 1.00000    1.76     1.76   0.30998  -12.0511
 1.05000    1.76     1.76   0.30987  -12.0500
 1.10000    1.76     1.76   0.31013  -12.0508
 1.15000    1.76     1.76   0.31044  -12.0497
 1.20000    1.76     1.76   0.31154  -12.0504
 1.25000    1.76     1.76   0.31179  -12.0505
 1.30000    1.76     1.76   0.31153  -12.0500
 1.35000    1.76     1.76   0.31232  -12.0499
 1.40000    1.76     1.76   0.31280  -12.0497
 1.45000    1.76     1.76   0.31224  -12.0489
 1.50000    1.76     1.76   0.31275  -12.0491
 1.55000    1.76     1.76   0.31311  -12.0490
 1.60000    1.76     1.76   0.31301  -12.0485
 1.65000    1.76     1.76   0.31298  -12.0486
 1.70000    1.76     1.76   0.31332  -12.0478
 1.75000    1.76     1.76   0.31381  -12.0481
 1.80000    1.76     1.76   0.31291  -12.0478
 1.85000    1.76     1.76   0.31320  -12.0479
 1.90000    1.76     1.76   0.31370  -12.0476
 1.95000    1.76     1.76   0.31344  -12.0475
 2.00000    1.76     1.76   0.31311  -12.0473
 2.05000    1.76     1.76   0.31336  -12.0473
 2.10000    1.76     1.76   0.31348  -12.0468
 2.15000    1.76     1.76   0.31313  -12.0473
 2.20000    1.76     1.76   0.31340  -12.0474
 2.25000    1.76     1.76   0.31369  -12.0470
 2.30000    1.76     1.76   0.31344  -12.0468
 2.35000    1.76     1.76   0.31275  -12.0462
 2.40000    1.76     1.76   0.31325  -12.0461
 2.45000    1.76     1.76   0.31329  -12.0461
 2.50000    1.76     1.76   0.31313  -12.0467
 2.55000    1.76     1.76   0.31285  -12.0460
 2.60000    1.76     1.76   0.31379  -12.0465
 2.65000    1.76     1.76   0.31326  -12.0465
 2.70000    1.76     1.76   0.31280  -12.0463
 2.75000    1.76     1.76   0.31318  -12.0465
 2.80000    1.76     1.76   0.31356  -12.0464
 2.85000    1.76     1.76   0.31307  -12.0462
 2.90000    1.76     1.76   0.31237  -12.0453
 2.95000    1.76     1.76   0.31320  -12.0458
 3.00000    1.76     1.76   0.31311  -12.0461
 3.05000    1.76     1.76   0.31287  -12.0460
 3.10000    1.76     1.76   0.31282  -12.0458
 3.15000    1.76     1.76   0.31347  -12.0461
 3.20000    1.76     1.76   0.31255  -12.0456
 3.25000    1.76     1.76   0.31269  -12.0459
 3.30000    1.76     1.76   0.31356  -12.0462
 3.35000    1.76     1.76   0.31328  -12.0455
 3.40000    1.76     1.76   0.31266  -12.0460
 3.45000    1.76     1.76   0.31295  -12.0458
 3.50000    1.76     1.76   0.31329  -12.0461
 3.55000    1.76     1.76   0.31332  -12.0461
 3.60000    1.76     1.76   0.31294  -12.0456
 3.65000    1.76     1.76   0.31304  -12.0451
 3.70000    1.76     1.76   0.31344  -12.0452
 3.75000    1.76     1.76   0.31244  -12.0435
 3.80000    1.76     1.76   0.31230  -12.0442
 3.85000    1.76     1.76   0.31302  -12.0442
 3.90000    1.76     1.76   0.31342  -12.0452
 3.95000    1.76     1.76   0.31272  -12.0449
 4.00000    1.76     1.76   0.31279  -12.0453
 4.00000    1.76     1.76   0.31350  -12.0453
 3.95000    1.76     1.76   0.31304  -12.0454
 3.90000    1.76     1.76   0.31292  -12.0448
 3.85000    1.76     1.76   0.31350  -12.0450
 3.80000    1.76     1.76   0.31313  -12.0446
 3.75000    1.76     1.76   0.31292  -12.0450
 3.70000    1.76     1.76   0.31298  -12.0450
 3.65000    1.76     1.76   0.31362  -12.0454
 3.60000    1.76     1.76   0.31348  -12.0451
 3.55000    1.76     1.76   0.31286  -12.0455
 3.50000    1.76     1.76   0.31356  -12.0455
 3.45000    1.76     1.76   0.31352  -12.0445
 3.40000    1.76     1.76   0.31356  -12.0461
 3.35000    1.76     1.76   0.31336  -12.0455
 3.30000    1.76     1.76   0.31362  -12.0450
 3.25000    1.76     1.76   0.31380  -12.0450
 3.20000    1.76     1.76   0.31292  -12.0445
 3.15000    1.76     1.76   0.31338  -12.0447
 3.10000    1.76     1.76   0.31385  -12.0446
 3.05000    1.76     1.76   0.31358  -12.0454
 3.00000    1.76     1.76   0.31335  -12.0448
 2.95000    1.76     1.76   0.31367  -12.0451
 2.90000    1.76     1.76   0.31373  -12.0451
 2.85000    1.76     1.76   0.31355  -12.0451
 2.80000    1.76     1.76   0.31344  -12.0454
 2.75000    1.76     1.76   0.31382  -12.0455
 2.70000    1.76     1.76   0.31365  -12.0448
 2.65000    1.76     1.76   0.31326  -12.0453
 2.60000    1.76     1.76   0.31375  -12.0455
 2.55000    1.76     1.76   0.31412  -12.0457
 2.50000    1.76     1.76   0.31345  -12.0457
 2.45000    1.76     1.76   0.31326  -12.0454
 2.40000    1.76     1.76   0.31386  -12.0456
 2.35000    1.76     1.76   0.31405  -12.0462
 2.30000    1.76     1.76   0.31335  -12.0457
 2.25000    1.76     1.76   0.31307  -12.0457
 2.20000    1.76     1.76   0.31402  -12.0463
 2.15000    1.76     1.76   0.31307  -12.0457
 2.10000    1.76     1.76   0.31311  -12.0465
 2.05000    1.76     1.76   0.31347  -12.0461
 2.00000    1.76     1.76   0.31351  -12.0457
 1.95000    1.76     1.76   0.31294  -12.0461
 1.90000    1.76     1.76   0.31304  -12.0465
 1.85000    1.76     1.76   0.31344  -12.0469
 1.80000    1.76     1.76   0.31339  -12.0470
 1.75000    1.76     1.76   0.31267  -12.0478
 1.70000    1.76     1.76   0.31283  -12.0472
 1.65000    1.76     1.76   0.31271  -12.0475
 1.60000    1.76     1.76   0.31252  -12.0479
 1.55000    1.76     1.76   0.31201  -12.0485
 1.50000    1.76     1.76   0.31246  -12.0488
 1.45000    1.76     1.76   0.31191  -12.0490
 1.40000    1.76     1.76   0.31167  -12.0494
 1.35000    1.76     1.76   0.31111  -12.0490
 1.30000    1.76     1.76   0.31107  -12.0493
 1.25000    1.76     1.76   0.31047  -12.0503
 1.20000    1.76     1.76   0.30957  -12.0503
 1.15000    1.76     1.76   0.30951  -12.0505
 1.10000    1.76     1.76   0.30928  -12.0506
 1.05000    1.76     1.76   0.30837  -12.0513
 1.00000    1.76     1.76   0.30760  -12.0508
 0.95000    1.76     1.76   0.30738  -12.0514
 0.90000    1.76     1.76   0.30641  -12.0518
 0.85000    1.76     1.76   0.30537  -12.0525
 0.80000    1.76     1.76   0.30439  -12.0524
 0.75000    1.76     1.76   0.30361  -12.0532
 0.70000    1.76     1.76   0.30175  -12.0525
 0.65000    1.76     1.76   0.30017  -12.0519
 0.60000    1.76     1.76   0.29957  -12.0511
 0.55000    1.76     1.76   0.29850  -12.0499
 0.50000    1.76     1.76   0.29709  -12.0488
 0.45000    1.76     1.76   0.29625  -12.0478
 0.40000    1.76     1.76   0.29560  -12.0463
 0.35000    1.76     1.76   0.29489  -12.0443
 0.30000    1.76     1.76   0.29483  -12.0418
 0.25000    1.76     1.76   0.29524  -12.0395
 0.20000    1.76     1.76   0.29658  -12.0402
 0.15000    1.76     1.76   0.29662  -12.0410
 0.10000    1.76     1.76   0.29707  -12.0407
 0.05000    1.76     1.76   0.29722  -12.0406
 -0.00000    1.76     1.76   0.29757  -12.0415
