 Field[T] Tsmpl[K] Tcntr[K] Signal   Mirror[MM]
 0.00000    1.78     1.78   0.33126  -12.1143
 0.05000    1.78     1.78   0.33121  -12.1147
 0.10000    1.78     1.78   0.33081  -12.1146
 0.15000    1.78     1.78   0.33092  -12.1147
 0.20000    1.78     1.78   0.33065  -12.1144
 0.25000    1.78     1.78   0.33035  -12.1149
 0.30000    1.78     1.78   0.33017  -12.1150
 0.35000    1.78     1.78   0.33001  -12.1152
 0.40000    1.78     1.78   0.32979  -12.1153
 0.45000    1.78     1.78   0.32959  -12.1149
 0.50000    1.78     1.78   0.32938  -12.1149
 0.55000    1.78     1.78   0.32873  -12.1148
 0.60000    1.78     1.78   0.32808  -12.1145
 0.65000    1.78     1.78   0.32737  -12.1141
 0.70000    1.78     1.78   0.32640  -12.1136
 0.75000    1.78     1.78   0.32358  -12.1133
 0.80000    1.78     1.78   0.32108  -12.1143
 0.85000    1.78     1.78   0.31970  -12.1157
 0.90000    1.78     1.78   0.31887  -12.1169
 0.95000    1.78     1.78   0.31835  -12.1179
 1.00000    1.78     1.78   0.31819  -12.1190
 1.05000    1.78     1.78   0.31802  -12.1198
 1.10000    1.78     1.78   0.31826  -12.1207
 1.15000    1.78     1.78   0.31868  -12.1217
 1.20000    1.78     1.78   0.31928  -12.1226
 1.25000    1.78     1.78   0.31972  -12.1229
 1.30000    1.78     1.78   0.32006  -12.1228
 1.35000    1.78     1.78   0.31995  -12.1231
 1.40000    1.78     1.78   0.31977  -12.1233
 1.45000    1.78     1.78   0.31981  -12.1237
 1.50000    1.78     1.78   0.31962  -12.1240
 1.55000    1.78     1.78   0.31957  -12.1240
 1.60000    1.78     1.78   0.31953  -12.1243
 1.65000    1.78     1.78   0.31944  -12.1247
 1.70000    1.78     1.78   0.31935  -12.1251
 1.75000    1.78     1.78   0.31918  -12.1255
 1.80000    1.78     1.78   0.31922  -12.1259
 1.85000    1.78     1.78   0.31930  -12.1263
 1.90000    1.78     1.78   0.31922  -12.1267
 1.95000    1.78     1.78   0.31927  -12.1267
 2.00000    1.78     1.78   0.31949  -12.1269
 2.05000    1.78     1.78   0.31954  -12.1269
 2.10000    1.78     1.78   0.31964  -12.1275
 2.15000    1.78     1.78   0.31966  -12.1278
 2.20000    1.78     1.78   0.31988  -12.1279
 2.25000    1.78     1.78   0.32007  -12.1282
 2.30000    1.78     1.78   0.32028  -12.1287
 2.35000    1.78     1.78   0.32023  -12.1291
 2.40000    1.78     1.78   0.32018  -12.1290
 2.45000    1.78     1.78   0.32040  -12.1291
 2.50000    1.78     1.78   0.32042  -12.1293
 2.55000    1.78     1.78   0.32041  -12.1296
 2.60000    1.78     1.78   0.32070  -12.1296
 2.65000    1.78     1.78   0.32075  -12.1297
 2.70000    1.78     1.78   0.32098  -12.1299
 2.75000    1.78     1.78   0.32076  -12.1301
 2.80000    1.78     1.78   0.32088  -12.1304
 2.85000    1.78     1.78   0.32080  -12.1302
 2.90000    1.78     1.78   0.32104  -12.1305
 2.95000    1.78     1.78   0.32101  -12.1307
 3.00000    1.78     1.78   0.32089  -12.1308
 3.05000    1.78     1.78   0.32103  -12.1305
 3.10000    1.78     1.78   0.32087  -12.1306
 3.15000    1.78     1.78   0.32083  -12.1306
 3.20000    1.78     1.78   0.32079  -12.1309
 3.25000    1.78     1.78   0.32087  -12.1311
 3.30000    1.78     1.78   0.31993  -12.1302
 3.35000    1.78     1.78   0.32053  -12.1313
 3.40000    1.78     1.78   0.32026  -12.1312
 3.45000    1.78     1.78   0.32041  -12.1317
 3.50000    1.78     1.78   0.32044  -12.1321
 3.55000    1.78     1.78   0.32055  -12.1318
 3.60000    1.78     1.78   0.32034  -12.1319
 3.65000    1.78     1.78   0.32034  -12.1321
 3.70000    1.78     1.78   0.32050  -12.1321
 3.75000    1.78     1.78   0.32034  -12.1323
 3.80000    1.78     1.78   0.32015  -12.1321
 3.85000    1.78     1.78   0.32017  -12.1325
 3.90000    1.78     1.78   0.32019  -12.1327
 3.95000    1.78     1.78   0.31979  -12.1327
 4.00000    1.78     1.78   0.31984  -12.1325
 4.05000    1.78     1.78   0.31982  -12.1326
 4.10000    1.78     1.78   0.31979  -12.1327
 4.15000    1.78     1.78   0.31961  -12.1328
 4.20000    1.78     1.78   0.31964  -12.1329
 4.25000    1.78     1.78   0.31961  -12.1328
 4.30000    1.78     1.78   0.31950  -12.1330
 4.35000    1.78     1.78   0.31928  -12.1332
 4.40000    1.78     1.78   0.31931  -12.1331
 4.45000    1.78     1.78   0.31915  -12.1333
 4.50000    1.78     1.78   0.31910  -12.1338
 4.55000    1.78     1.78   0.31895  -12.1338
 4.60000    1.78     1.78   0.31875  -12.1336
 4.65000    1.78     1.78   0.31880  -12.1338
 4.70000    1.78     1.78   0.31856  -12.1341
 4.75000    1.78     1.78   0.31856  -12.1340
 4.80000    1.78     1.78   0.31842  -12.1341
 4.85000    1.78     1.78   0.31830  -12.1343
 4.90000    1.78     1.78   0.31791  -12.1345
 4.95000    1.78     1.78   0.31790  -12.1348
 5.00000    1.78     1.78   0.31787  -12.1348
 5.00000    1.78     1.78   0.31782  -12.1347
 4.95000    1.78     1.78   0.31765  -12.1352
 4.90000    1.78     1.78   0.31747  -12.1348
 4.85000    1.78     1.78   0.31737  -12.1350
 4.80000    1.78     1.78   0.31739  -12.1348
 4.75000    1.78     1.78   0.31735  -12.1352
 4.70000    1.78     1.78   0.31739  -12.1350
 4.65000    1.78     1.78   0.31732  -12.1352
 4.60000    1.78     1.78   0.31724  -12.1351
 4.55000    1.78     1.78   0.31710  -12.1350
 4.50000    1.78     1.78   0.31709  -12.1351
 4.45000    1.78     1.78   0.31717  -12.1354
 4.40000    1.78     1.78   0.31703  -12.1357
 4.35000    1.78     1.78   0.31700  -12.1357
 4.30000    1.78     1.78   0.31676  -12.1360
 4.25000    1.78     1.78   0.31679  -12.1360
 4.20000    1.78     1.78   0.31666  -12.1358
 4.15000    1.78     1.78   0.31665  -12.1360
 4.10000    1.78     1.78   0.31651  -12.1359
 4.05000    1.78     1.78   0.31632  -12.1358
 4.00000    1.78     1.78   0.31609  -12.1358
 3.95000    1.78     1.78   0.31606  -12.1361
 3.90000    1.78     1.78   0.31593  -12.1362
 3.85000    1.78     1.78   0.31595  -12.1362
 3.80000    1.78     1.78   0.31583  -12.1362
 3.75000    1.78     1.78   0.31559  -12.1364
 3.70000    1.78     1.78   0.31563  -12.1364
 3.65000    1.78     1.78   0.31570  -12.1364
 3.60000    1.78     1.78   0.31539  -12.1366
 3.55000    1.78     1.78   0.31522  -12.1366
 3.50000    1.78     1.78   0.31534  -12.1366
 3.45000    1.78     1.78   0.31517  -12.1368
 3.40000    1.78     1.78   0.31515  -12.1367
 3.35000    1.78     1.78   0.31486  -12.1366
 3.30000    1.78     1.78   0.31485  -12.1367
 3.25000    1.78     1.78   0.31479  -12.1370
 3.20000    1.78     1.78   0.31464  -12.1368
 3.15000    1.78     1.78   0.31453  -12.1365
 3.10000    1.78     1.78   0.31456  -12.1366
 3.05000    1.78     1.78   0.31435  -12.1370
 3.00000    1.78     1.78   0.31435  -12.1370
 2.95000    1.78     1.78   0.31417  -12.1373
 2.90000    1.78     1.78   0.31383  -12.1374
 2.85000    1.78     1.78   0.31390  -12.1374
 2.80000    1.78     1.78   0.31368  -12.1371
 2.75000    1.78     1.78   0.31355  -12.1368
 2.70000    1.78     1.78   0.31357  -12.1369
 2.65000    1.78     1.78   0.31332  -12.1368
 2.60000    1.78     1.78   0.31317  -12.1371
 2.55000    1.78     1.78   0.31313  -12.1370
 2.50000    1.78     1.78   0.31282  -12.1370
 2.45000    1.78     1.78   0.31261  -12.1370
 2.40000    1.78     1.78   0.31216  -12.1367
 2.35000    1.78     1.78   0.31213  -12.1365
 2.30000    1.78     1.78   0.31222  -12.1364
 2.25000    1.78     1.78   0.31183  -12.1364
 2.20000    1.78     1.78   0.31159  -12.1364
 2.15000    1.78     1.78   0.31125  -12.1363
 2.10000    1.78     1.78   0.31098  -12.1363
 2.05000    1.78     1.78   0.31094  -12.1362
 2.00000    1.78     1.78   0.31053  -12.1360
 1.95000    1.78     1.78   0.31042  -12.1355
 1.90000    1.78     1.78   0.31038  -12.1352
 1.85000    1.78     1.78   0.30984  -12.1351
 1.80000    1.78     1.78   0.30985  -12.1352
 1.75000    1.78     1.78   0.30980  -12.1345
 1.70000    1.78     1.78   0.30978  -12.1341
 1.65000    1.78     1.78   0.30966  -12.1338
 1.60000    1.78     1.78   0.30974  -12.1336
 1.55000    1.78     1.78   0.30997  -12.1331
 1.50000    1.78     1.78   0.30965  -12.1329
 1.45000    1.78     1.78   0.30962  -12.1327
 1.40000    1.78     1.78   0.30950  -12.1321
 1.35000    1.78     1.78   0.30866  -12.1311
 1.30000    1.78     1.78   0.30939  -12.1312
 1.25000    1.78     1.78   0.30910  -12.1311
 1.20000    1.78     1.78   0.30847  -12.1309
 1.15000    1.78     1.78   0.30771  -12.1297
 1.10000    1.78     1.78   0.30717  -12.1301
 1.05000    1.78     1.78   0.30705  -12.1299
 1.00000    1.78     1.78   0.30737  -12.1284
 0.95000    1.78     1.78   0.30752  -12.1274
 0.90000    1.78     1.78   0.30782  -12.1261
 0.85000    1.78     1.78   0.30814  -12.1250
 0.80000    1.78     1.78   0.30929  -12.1240
 0.75000    1.78     1.78   0.31126  -12.1223
 0.70000    1.78     1.78   0.31382  -12.1231
 0.65000    1.78     1.78   0.31511  -12.1235
 0.60000    1.78     1.78   0.31581  -12.1236
 0.55000    1.78     1.78   0.31636  -12.1241
 0.50000    1.78     1.78   0.31651  -12.1244
 0.45000    1.78     1.78   0.31663  -12.1247
 0.40000    1.78     1.78   0.31710  -12.1247
 0.35000    1.78     1.78   0.31727  -12.1245
 0.30000    1.78     1.78   0.31742  -12.1241
 0.25000    1.78     1.78   0.31761  -12.1246
 0.20000    1.78     1.78   0.31786  -12.1241
 0.15000    1.78     1.78   0.31789  -12.1239
 0.10000    1.78     1.78   0.31806  -12.1240
 0.05000    1.78     1.78   0.31784  -12.1243
 -0.00000    1.78     1.78   0.31772  -12.1241
