 Field[T] Tsmpl[K] Tcntr[K] SignalIntensity
 0.00000    1.85     1.85   0.35415
 0.05000    1.85     1.85   0.35377
 0.10000    1.85     1.85   0.35371
 0.15000    1.85     1.85   0.35363
 0.20000    1.85     1.85   0.35310
 0.25000    1.85     1.85   0.35286
 0.30000    1.85     1.85   0.35249
 0.35000    1.85     1.85   0.35190
 0.40000    1.85     1.85   0.35181
 0.45000    1.85     1.85   0.35129
 0.50000    1.85     1.85   0.35103
 0.55000    1.85     1.85   0.34998
 0.60000    1.85     1.85   0.34969
 0.65000    1.85     1.85   0.34961
 0.70000    1.85     1.85   0.34945
 0.75000    1.85     1.85   0.34943
 0.80000    1.85     1.85   0.34908
 0.85000    1.85     1.85   0.34895
 0.90000    1.85     1.85   0.34879
 0.95000    1.85     1.85   0.34849
 1.00000    1.85     1.85   0.34827
 1.05000    1.85     1.85   0.34802
 1.10000    1.85     1.85   0.34782
 1.15000    1.85     1.85   0.34746
 1.20000    1.85     1.85   0.34729
 1.25000    1.85     1.85   0.34725
 1.30000    1.85     1.85   0.34713
 1.35000    1.85     1.85   0.34736
 1.40000    1.85     1.85   0.34759
 1.45000    1.85     1.85   0.34789
 1.50000    1.85     1.85   0.34810
 1.55000    1.85     1.85   0.34776
 1.60000    1.85     1.85   0.34783
 1.65000    1.85     1.85   0.34757
 1.70000    1.85     1.85   0.34773
 1.75000    1.85     1.85   0.34805
 1.80000    1.85     1.85   0.34792
 1.85000    1.85     1.85   0.34789
 1.90000    1.85     1.85   0.34767
 1.95000    1.85     1.85   0.34736
 2.00000    1.85     1.85   0.34697
 2.05000    1.85     1.85   0.34656
 2.10000    1.85     1.85   0.34663
 2.15000    1.85     1.85   0.34646
 2.20000    1.85     1.85   0.34671
 2.25000    1.85     1.85   0.34648
 2.30000    1.85     1.85   0.34647
 2.35000    1.85     1.85   0.34655
 2.40000    1.85     1.85   0.34640
 2.45000    1.85     1.85   0.34583
 2.50000    1.85     1.85   0.34502
 2.55000    1.85     1.85   0.34435
 2.60000    1.85     1.85   0.34440
 2.65000    1.85     1.85   0.34379
 2.70000    1.85     1.85   0.34365
 2.75000    1.85     1.85   0.34369
 2.80000    1.85     1.85   0.34339
 2.85000    1.85     1.85   0.34323
 2.90000    1.85     1.85   0.34304
 2.95000    1.85     1.85   0.34291
 3.00000    1.85     1.85   0.34305
 3.05000    1.85     1.85   0.34290
 3.10000    1.85     1.85   0.34260
 3.15000    1.85     1.85   0.34243
 3.20000    1.85     1.85   0.34231
 3.25000    1.85     1.85   0.34181
 3.30000    1.85     1.85   0.34149
 3.35000    1.85     1.85   0.34122
 3.40000    1.85     1.85   0.34091
 3.45000    1.85     1.85   0.34054
 3.50000    1.85     1.85   0.34040
 3.55000    1.85     1.85   0.34018
 3.60000    1.85     1.85   0.33984
 3.65000    1.85     1.85   0.33972
 3.70000    1.85     1.85   0.33961
 3.75000    1.85     1.85   0.33906
 3.80000    1.85     1.85   0.33872
 3.85000    1.85     1.85   0.33837
 3.90000    1.85     1.85   0.33810
 3.95000    1.85     1.85   0.33775
 4.00000    1.85     1.85   0.33762
 4.05000    1.85     1.85   0.33737
 4.10000    1.85     1.85   0.33736
 4.15000    1.85     1.85   0.33688
 4.20000    1.85     1.85   0.33654
 4.25000    1.85     1.85   0.33601
 4.30000    1.85     1.85   0.33575
 4.35000    1.85     1.85   0.33556
 4.40000    1.85     1.85   0.33528
 4.45000    1.85     1.85   0.33517
 4.50000    1.85     1.85   0.33486
 4.55000    1.85     1.85   0.33441
 4.60000    1.85     1.85   0.33400
 4.65000    1.85     1.85   0.33361
 4.70000    1.85     1.85   0.33341
 4.75000    1.85     1.85   0.33334
 4.80000    1.85     1.85   0.33288
 4.85000    1.85     1.85   0.33263
 4.90000    1.85     1.85   0.33211
 4.95000    1.85     1.85   0.33194
 5.00000    1.85     1.85   0.33157
 5.05000    1.85     1.85   0.33157
 5.10000    1.85     1.85   0.33171
 5.15000    1.85     1.85   0.33153
 5.20000    1.85     1.85   0.33119
 5.25000    1.85     1.85   0.33089
 5.30000    1.85     1.85   0.33061
 5.35000    1.85     1.85   0.33047
 5.40000    1.85     1.85   0.33017
 5.45000    1.85     1.85   0.32990
 5.50000    1.85     1.85   0.32983
 5.55000    1.85     1.85   0.32964
 5.60000    1.85     1.85   0.32919
 5.65000    1.85     1.85   0.32895
 5.70000    1.85     1.85   0.32874
 5.75000    1.85     1.85   0.32827
 5.80000    1.85     1.85   0.32814
 5.85000    1.85     1.85   0.32798
 5.90000    1.85     1.85   0.32792
 5.95000    1.85     1.85   0.32770
 6.00000    1.85     1.85   0.32764
 6.05000    1.85     1.85   0.32725
 6.10000    1.85     1.85   0.32684
 6.15000    1.85     1.85   0.32634
 6.20000    1.85     1.85   0.32613
 6.25000    1.85     1.85   0.32610
 6.30000    1.85     1.85   0.32591
 6.35000    1.85     1.85   0.32578
 6.40000    1.85     1.85   0.32562
 6.45000    1.85     1.85   0.32540
 6.50000    1.85     1.85   0.32516
 6.55000    1.85     1.85   0.32506
 6.60000    1.85     1.85   0.32484
 6.65000    1.85     1.85   0.32458
 6.70000    1.85     1.85   0.32449
 6.75000    1.85     1.85   0.32432
 6.80000    1.85     1.85   0.32438
 6.85000    1.85     1.85   0.32421
 6.90000    1.85     1.85   0.32399
 6.95000    1.85     1.85   0.32392
 7.00000    1.85     1.85   0.32385
