 Field[T] Tsmpl[K] Tcntr[K] Signal
 0.00000    1.85     1.88   2.13200
 0.05000    1.85     1.88   2.12970
 0.10000    1.85     1.88   2.13420
 0.15000    1.85     1.88   2.12840
 0.20000    1.85     1.88   2.13360
 0.25000    1.85     1.88   2.13580
 0.30000    1.85     1.88   2.13860
 0.35000    1.85     1.88   2.13840
 0.40000    1.85     1.88   2.13690
 0.45000    1.85     1.88   2.14210
 0.50000    1.85     1.87   2.13800
 0.55000    1.85     1.87   2.13880
 0.60000    1.85     1.87   2.13790
 0.65000    1.85     1.87   2.14360
 0.70000    1.85     1.87   2.13910
 0.75000    1.85     1.87   2.14230
 0.80000    1.85     1.87   2.14860
 0.85000    1.85     1.87   2.14560
 0.90000    1.85     1.87   2.15400
 0.95000    1.85     1.87   2.14740
 1.00000    1.85     1.87   2.14880
 1.05000    1.85     1.87   2.15210
 1.10000    1.85     1.87   2.15080
 1.15000    1.85     1.87   2.15030
 1.20000    1.85     1.87   2.15000
 1.25000    1.85     1.87   2.15220
 1.30000    1.85     1.87   2.15790
 1.35000    1.85     1.87   2.15610
 1.40000    1.85     1.87   2.15780
 1.45000    1.85     1.87   2.15200
 1.50000    1.85     1.87   2.15980
 1.55000    1.85     1.88   2.15640
 1.60000    1.85     1.88   2.15680
 1.65000    1.85     1.88   2.15750
 1.70000    1.85     1.88   2.15840
 1.75000    1.85     1.88   2.15590
 1.80000    1.85     1.88   2.15420
 1.85000    1.86     1.88   2.16240
 1.90000    1.86     1.88   2.16180
 1.95000    1.86     1.88   2.16110
 2.00000    1.86     1.88   2.15950
 2.05000    1.86     1.88   2.16560
 2.10000    1.86     1.88   2.16460
 2.15000    1.86     1.88   2.16550
 2.20000    1.86     1.88   2.16090
 2.25000    1.86     1.88   2.15970
 2.30000    1.86     1.88   2.15850
 2.35000    1.86     1.88   2.16190
 2.40000    1.86     1.88   2.15660
 2.45000    1.86     1.88   2.16200
 2.50000    1.86     1.88   2.15210
 2.55000    1.86     1.88   2.15030
 2.60000    1.86     1.88   2.15010
 2.65000    1.86     1.88   2.14910
 2.70000    1.86     1.88   2.14370
 2.75000    1.87     1.88   2.14130
 2.80000    1.87     1.88   2.13940
 2.85000    1.87     1.88   2.13220
 2.90000    1.87     1.88   2.12620
 2.95000    1.87     1.89   2.12850
 3.00000    1.87     1.89   2.12770
 3.05000    1.87     1.89   2.12440
 3.10000    1.87     1.89   2.12640
 3.15000    1.87     1.89   2.12460
 3.20000    1.87     1.89   2.12500
 3.25000    1.87     1.89   2.12120
 3.30000    1.87     1.89   2.11770
 3.35000    1.87     1.89   2.12200
 3.40000    1.87     1.89   2.12440
 3.45000    1.87     1.89   2.12490
 3.50000    1.87     1.89   2.12480
 3.55000    1.87     1.89   2.12870
 3.60000    1.87     1.89   2.12890
 3.65000    1.87     1.89   2.12640
 3.70000    1.87     1.89   2.12650
 3.75000    1.87     1.89   2.12980
 3.80000    1.88     1.89   2.12260
 3.85000    1.88     1.89   2.12680
 3.90000    1.88     1.89   2.12730
 3.95000    1.88     1.89   2.12430
 4.00000    1.88     1.90   2.13270
 4.05000    1.88     1.90   2.12670
 4.10000    1.88     1.90   2.12450
 4.15000    1.88     1.90   2.12660
 4.20000    1.88     1.90   2.11910
 4.25000    1.88     1.90   2.12070
 4.30000    1.88     1.90   2.12410
 4.35000    1.88     1.90   2.12290
 4.40000    1.88     1.90   2.12190
 4.45000    1.88     1.90   2.11880
 4.50000    1.88     1.90   2.11990
 4.55000    1.88     1.90   2.11870
 4.60000    1.88     1.90   2.11650
 4.65000    1.88     1.90   2.11740
 4.70000    1.88     1.90   2.11700
 4.75000    1.88     1.90   2.11330
 4.80000    1.88     1.90   2.10850
 4.85000    1.88     1.91   2.10910
 4.90000    1.88     1.91   2.10800
 4.95000    1.88     1.91   2.10590
 5.00000    1.88     1.91   2.10350
 5.00000    1.88     1.91   2.10650
 4.95000    1.88     1.91   2.10710
 4.90000    1.88     1.91   2.10720
 4.85000    1.88     1.91   2.11120
 4.80000    1.88     1.91   2.11000
 4.75000    1.88     1.91   2.11020
 4.70000    1.88     1.91   2.11420
 4.65000    1.88     1.91   2.11420
 4.60000    1.88     1.91   2.11460
 4.55000    1.88     1.91   2.11600
 4.50000    1.88     1.91   2.12170
 4.45000    1.88     1.91   2.12000
 4.40000    1.88     1.91   2.11820
 4.35000    1.88     1.90   2.12180
 4.30000    1.88     1.90   2.12320
 4.25000    1.88     1.90   2.12810
 4.20000    1.88     1.90   2.12780
 4.15000    1.88     1.90   2.12860
 4.10000    1.88     1.90   2.12800
 4.05000    1.88     1.90   2.13270
 4.00000    1.88     1.90   2.13130
 3.95000    1.88     1.90   2.12830
 3.90000    1.88     1.90   2.13160
 3.85000    1.88     1.90   2.13140
 3.80000    1.88     1.90   2.12990
 3.75000    1.88     1.90   2.13450
 3.70000    1.88     1.90   2.13000
 3.65000    1.88     1.90   2.13170
 3.60000    1.88     1.90   2.13150
 3.55000    1.88     1.90   2.12990
 3.50000    1.88     1.90   2.12820
 3.45000    1.88     1.90   2.12960
 3.40000    1.88     1.90   2.12870
 3.35000    1.88     1.89   2.12770
 3.30000    1.88     1.89   2.12640
 3.25000    1.88     1.89   2.12630
 3.20000    1.88     1.89   2.12490
 3.15000    1.87     1.89   2.12590
 3.10000    1.87     1.89   2.12800
 3.05000    1.87     1.89   2.12950
 3.00000    1.87     1.89   2.13140
 2.95000    1.87     1.89   2.12980
 2.90000    1.87     1.89   2.13490
 2.85000    1.87     1.89   2.13720
 2.80000    1.87     1.89   2.14440
 2.75000    1.87     1.89   2.14620
 2.70000    1.87     1.89   2.15170
 2.65000    1.87     1.89   2.14750
 2.60000    1.87     1.89   2.15250
 2.55000    1.87     1.89   2.15650
 2.50000    1.87     1.89   2.16000
 2.45000    1.87     1.89   2.16110
 2.40000    1.87     1.88   2.16480
 2.35000    1.87     1.88   2.16580
 2.30000    1.87     1.88   2.16410
 2.25000    1.87     1.88   2.16660
 2.20000    1.87     1.88   2.16410
 2.15000    1.86     1.88   2.16900
 2.10000    1.86     1.88   2.16780
 2.05000    1.86     1.88   2.16920
 2.00000    1.86     1.88   2.17100
 1.95000    1.86     1.88   2.16440
 1.90000    1.86     1.88   2.17010
 1.85000    1.86     1.88   2.16460
 1.80000    1.86     1.88   2.16270
 1.75000    1.86     1.88   2.16250
 1.70000    1.86     1.88   2.16640
 1.65000    1.86     1.88   2.16170
 1.60000    1.86     1.88   2.16050
 1.55000    1.86     1.88   2.16320
 1.50000    1.86     1.88   2.16030
 1.45000    1.86     1.88   2.15710
 1.40000    1.86     1.88   2.16110
 1.35000    1.86     1.88   2.15730
 1.30000    1.86     1.88   2.15260
 1.25000    1.85     1.88   2.14970
 1.20000    1.85     1.88   2.15210
 1.15000    1.85     1.88   2.15240
 1.10000    1.85     1.88   2.14890
 1.05000    1.85     1.88   2.14950
 1.00000    1.85     1.88   2.14900
 0.95000    1.85     1.88   2.14930
 0.90000    1.85     1.88   2.14330
 0.85000    1.85     1.88   2.14840
 0.80000    1.85     1.88   2.14950
 0.75000    1.85     1.88   2.14350
 0.70000    1.85     1.88   2.14300
 0.65000    1.85     1.88   2.14080
 0.60000    1.85     1.88   2.13730
 0.55000    1.85     1.88   2.13380
 0.50000    1.85     1.88   2.13750
 0.45000    1.85     1.88   2.13950
 0.40000    1.85     1.88   2.13530
 0.35000    1.85     1.88   2.13590
 0.30000    1.85     1.88   2.13730
 0.25000    1.85     1.88   2.13740
 0.20000    1.85     1.88   2.13590
 0.15000    1.85     1.88   2.13700
 0.10000    0.00     1.88   2.13420
 0.05000    1.85     1.88   2.13220
-0.00000    1.85     1.88   2.13460
