 Field[T] Tsmpl[K] Tcntr[K] Signal
 0.00000    1.85     1.87   5.56340
 0.05000    1.85     1.87   5.56900
 0.10000    1.85     1.87   5.56200
 0.15000    1.85     1.87   5.56470
 0.20000    1.85     1.87   5.56310
 0.25000    1.85     1.87   5.56850
 0.30000    1.85     1.87   5.56750
 0.35000    1.85     1.87   5.57160
 0.40000    1.85     1.87   5.57650
 0.45000    1.85     1.87   5.57610
 0.50000    1.85     1.87   5.57710
 0.55000    1.85     1.87   5.58120
 0.60000    1.85     1.87   5.58810
 0.65000    1.85     1.87   5.59240
 0.70000    1.85     1.87   5.59280
 0.75000    1.85     1.87   5.60270
 0.80000    1.85     1.87   5.60070
 0.85000    1.85     1.87   5.61020
 0.90000    1.85     1.87   5.61630
 0.95000    1.85     1.87   5.61160
 1.00000    1.85     1.87   5.62000
 1.05000    1.85     1.87   5.62000
 1.10000    1.85     1.87   5.62260
 1.15000    1.85     1.87   5.62570
 1.20000    1.85     1.87   5.62420
 1.25000    1.85     1.87   5.63320
 1.30000    1.85     1.87   5.63100
 1.35000    1.85     1.87   5.64080
 1.40000    1.85     1.87   5.64340
 1.45000    1.85     1.88   5.64060
 1.50000    1.85     1.88   5.63780
 1.55000    1.85     1.88   5.64770
 1.60000    1.85     1.88   5.65610
 1.65000    1.86     1.88   5.66400
 1.70000    1.86     1.88   5.66360
 1.75000    1.86     1.88   5.66540
 1.80000    1.86     1.88   5.66640
 1.85000    1.86     1.88   5.66580
 1.90000    1.86     1.88   5.66920
 1.95000    1.86     1.88   5.67110
 2.00000    1.86     1.88   5.67670
 2.05000    1.86     1.88   5.67310
 2.10000    1.86     1.88   5.67340
 2.15000    1.86     1.88   5.68100
 2.20000    1.86     1.88   5.68220
 2.25000    1.86     1.88   5.67990
 2.30000    1.86     1.88   5.67760
 2.35000    1.86     1.88   5.68750
 2.40000    1.86     1.88   5.68060
 2.45000    1.86     1.88   5.67650
 2.50000    1.86     1.88   5.68410
 2.55000    1.87     1.88   5.69070
 2.60000    1.87     1.88   5.69130
 2.65000    1.87     1.88   5.68690
 2.70000    1.87     1.88   5.68430
 2.75000    1.87     1.89   5.68550
 2.80000    1.87     1.89   5.68490
 2.85000    1.87     1.89   5.68660
 2.90000    1.87     1.89   5.68990
 2.95000    1.87     1.89   5.68840
 3.00000    1.87     1.89   5.68130
 3.05000    1.87     1.89   5.68060
 3.10000    1.87     1.89   5.68280
 3.15000    1.87     1.89   5.67990
 3.20000    1.87     1.89   5.68340
 3.25000    1.87     1.89   5.68630
 3.30000    1.87     1.89   5.68510
 3.35000    1.87     1.89   5.68430
 3.40000    1.87     1.89   5.68690
 3.45000    1.87     1.89   5.67630
 3.50000    1.87     1.89   5.67630
 3.55000    1.87     1.89   5.67470
 3.60000    1.88     1.89   5.67610
 3.65000    1.88     1.90   5.66860
 3.70000    1.88     1.90   5.66970
 3.75000    1.88     1.90   5.66790
 3.80000    1.88     1.90   5.67120
 3.85000    1.88     1.90   5.66570
 3.90000    1.88     1.90   5.66990
 3.95000    1.88     1.90   5.66690
 4.00000    1.88     1.90   5.66080
 4.05000    1.88     1.90   5.65980
 4.10000    1.88     1.90   5.66200
 4.15000    1.88     1.90   5.65070
 4.20000    1.88     1.90   5.64500
 4.25000    1.88     1.90   5.64060
 4.30000    1.88     1.90   5.63700
 4.35000    1.88     1.90   5.63290
 4.40000    1.88     1.90   5.63930
 4.45000    1.88     1.90   5.63270
 4.50000    1.88     1.90   5.62630
 4.55000    1.88     1.90   5.62660
 4.60000    1.88     1.91   5.62380
 4.65000    1.88     1.91   5.62310
 4.70000    1.88     1.91   5.62050
 4.75000    1.89     1.91   5.61160
 4.80000    1.89     1.91   5.60280
 4.85000    1.89     1.91   5.59980
 4.90000    1.89     1.91   5.59470
 4.95000    1.89     1.91   5.59380
 5.00000    1.89     1.91   5.58410
 5.05000    1.89     1.91   5.57980
 5.10000    1.89     1.91   5.57730
 5.15000    1.89     1.91   5.57640
 5.20000    1.89     1.91   5.56620
 5.25000    1.89     1.91   5.56540
 5.30000    1.89     1.91   5.56130
 5.35000    1.89     1.91   5.56080
 5.40000    1.89     1.91   5.55980
 5.45000    1.89     1.91   5.54860
 5.50000    1.89     1.91   5.55550
 5.55000    1.89     1.91   5.55050
 5.60000    1.89     1.91   5.53920
 5.65000    1.89     1.91   5.53750
 5.70000    1.89     1.91   5.52680
 5.75000    1.89     1.92   5.52900
 5.80000    1.89     1.92   5.52170
 5.85000    1.89     1.92   5.51540
 5.90000    1.89     1.92   5.51170
 5.95000    1.89     1.92   5.51190
 6.00000    1.89     1.92   5.51150
 6.05000    1.89     1.92   5.50520
 6.10000    1.89     1.92   5.49720
 6.15000    1.89     1.92   5.48990
 6.20000    1.90     1.92   5.48440
 6.25000    1.90     1.92   5.48290
 6.30000    1.90     1.92   5.47550
 6.35000    1.90     1.92   5.47710
 6.40000    1.90     1.92   5.47140
 6.45000    1.90     1.92   5.46490
 6.50000    1.90     1.92   5.45740
 6.55000    1.90     1.92   5.45370
 6.60000    1.90     1.92   5.44980
 6.65000    1.90     1.92   5.44420
 6.70000    1.90     1.92   5.44370
 6.75000    1.90     1.92   5.43670
 6.80000    1.90     1.92   5.43630
 6.85000    1.90     1.93   5.43490
 6.90000    1.90     1.93   5.42680
 6.95000    1.90     1.93   5.41720
 7.00000    1.90     1.93   5.41570
