 Field[T] Tsmpl[K] Tcntr[K] Signal
 7.00000    5.00     3.20   1.79310
 6.95000    5.00     3.21   1.79660
 6.90000    5.00     3.19   1.79820
 6.85000    5.00     3.20   1.78840
 6.80000    5.00     3.20   1.79050
 6.75000    4.99     3.19   1.78740
 6.70000    4.99     3.19   1.79110
 6.65000    4.99     3.20   1.79240
 6.60000    4.99     3.19   1.79180
 6.55000    4.99     3.21   1.79250
 6.50000    4.99     3.19   1.79220
 6.45000    4.99     3.20   1.79220
 6.40000    4.99     3.19   1.79280
 6.35000    4.99     3.20   1.79570
 6.30000    4.99     3.20   1.79260
 6.25000    4.99     3.19   1.79210
 6.20000    4.99     3.20   1.79330
 6.15000    5.00     3.21   1.79160
 6.10000    5.00     3.19   1.79300
 6.05000    5.00     3.22   1.79430
 6.00000    5.01     3.20   1.79510
 5.95000    5.01     3.20   1.79890
 5.90000    5.01     3.19   1.79640
 5.85000    5.01     3.19   1.79700
 5.80000    5.01     3.20   1.79890
 5.75000    5.02     3.20   1.79570
 5.70000    5.02     3.21   1.80080
 5.65000    5.03     3.20   1.79490
 5.60000    5.03     3.19   1.79910
 5.55000    5.03     3.20   1.80110
 5.50000    5.03     3.19   1.80400
 5.45000    5.03     3.21   1.80230
 5.40000    5.03     3.19   1.80180
 5.35000    5.03     3.20   1.80490
 5.30000    5.03     3.20   1.80500
 5.25000    5.03     3.20   1.80390
 5.20000    5.04     3.19   1.80920
 5.15000    5.04     3.20   1.80720
 5.10000    5.04     3.18   1.80910
 5.05000    5.05     3.22   1.80770
 5.00000    5.05     3.20   1.80980
 4.95000    5.05     3.20   1.80860
 4.90000    5.05     3.20   1.80990
 4.85000    5.06     3.20   1.81260
 4.80000    5.06     3.19   1.81130
 4.75000    5.06     3.21   1.81120
 4.70000    5.06     3.19   1.81320
 4.65000    5.06     3.20   1.81690
 4.60000    5.06     3.20   1.81390
 4.55000    5.06     3.20   1.81550
 4.50000    5.06     3.19   1.81790
 4.45000    5.06     3.21   1.81880
 4.40000    5.06     3.19   1.81860
 4.35000    5.06     3.20   1.81920
 4.30000    5.06     3.20   1.82190
 4.25000    5.07     3.20   1.81980
 4.20000    5.07     3.19   1.82150
 4.15000    5.07     3.19   1.82010
 4.10000    5.07     3.19   1.81760
 4.05000    5.07     3.21   1.82070
 4.00000    5.08     3.20   1.82010
 3.95000    5.08     3.20   1.82140
 3.90000    5.09     3.20   1.81880
 3.85000    5.09     3.20   1.82290
 3.80000    5.09     3.20   1.82000
 3.75000    5.09     3.20   1.81780
 3.70000    5.10     3.20   1.81930
 3.65000    5.10     3.20   1.82210
 3.60000    5.10     3.19   1.81880
 3.55000    5.11     3.19   1.81950
 3.50000    5.11     3.19   1.81930
 3.45000    5.11     3.20   1.81560
 3.40000    5.12     3.19   1.81000
 3.35000    5.12     3.19   1.81140
 3.30000    5.12     3.20   1.81670
 3.25000    5.12     3.20   1.81170
 3.20000    5.12     3.20   1.80720
 3.15000    5.12     3.19   1.80860
 3.10000    5.12     3.22   1.80600
 3.05000    5.13     3.19   1.80720
 3.00000    5.13     3.20   1.80880
 2.95000    5.13     3.19   1.80550
 2.90000    5.13     3.22   1.80480
 2.85000    5.14     3.19   1.80270
 2.80000    5.14     3.20   1.79970
 2.75000    5.15     3.20   1.79420
 2.70000    5.15     3.20   1.79700
 2.65000    5.16     3.20   1.79420
 2.60000    5.16     3.21   1.79380
 2.55000    5.17     3.20   1.79650
 2.50000    5.17     3.20   1.79550
 2.45000    5.17     3.19   1.79370
 2.40000    5.17     3.21   1.79430
 2.35000    5.17     3.19   1.78210
 2.30000    5.17     3.19   1.78460
 2.25000    5.16     3.21   1.78010
 2.20000    5.16     3.19   1.78250
 2.15000    5.16     3.19   1.77460
 2.10000    5.15     3.20   1.77020
 2.05000    5.14     3.18   1.77080
 2.00000    5.13     3.21   1.76660
 1.95000    5.13     3.19   1.76520
 1.90000    5.12     3.19   1.75440
 1.85000    5.11     3.19   1.75790
 1.80000    5.10     3.20   1.75230
 1.75000    5.10     3.20   1.74690
 1.70000    5.09     3.19   1.74430
 1.65000    5.08     3.21   1.73880
 1.60000    5.08     3.20   1.73220
 1.55000    5.07     3.18   1.73150
 1.50000    5.06     3.21   1.73880
 1.45000    5.06     3.19   1.73860
 1.40000    5.05     3.21   1.73890
 1.35000    5.05     3.18   1.73940
 1.30000    5.05     3.19   1.73820
 1.25000    5.04     3.18   1.73760
 1.20000    5.03     3.20   1.73370
 1.15000    5.03     3.19   1.72710
 1.10000    5.02     3.19   1.72490
 1.05000    5.01     3.18   1.72130
 1.00000    5.01     3.19   1.71670
 0.95000    5.00     3.19   1.71420
 0.90000    4.99     3.21   1.70880
 0.85000    4.99     3.18   1.70860
 0.80000    4.98     3.19   1.71280
 0.75000    4.97     3.19   1.71720
 0.70000    4.96     3.20   1.72020
 0.65000    4.94     3.19   1.72430
 0.60000    4.94     3.19   1.72350
 0.55000    4.93     3.19   1.72480
 0.50000    4.92     3.19   1.72660
 0.45000    4.91     3.19   1.73050
 0.40000    4.91     3.18   1.73020
 0.35000    4.89     3.19   1.73200
 0.30000    4.88     3.17   1.73520
 0.25000    4.87     3.20   1.73580
 0.20000    4.87     3.18   1.73520
 0.15000    4.86     3.18   1.73620
 0.10000    4.85     3.18   1.74480
 0.05000    4.83     3.18   1.73830
-0.00000    4.82     3.18   1.73720
