 Field[T] Tsmpl[K] Tcntr[K] Signal
 7.00000   29.10    28.00   4.48920
 6.95000   29.10    28.00  -0.00240
 6.90000   29.11    28.00   4.46050
 6.85000   29.11    28.00   4.45410
 6.80000   29.11    28.00   4.44450
 6.75000   29.11    27.99   4.44090
 6.70000   29.11    27.99   4.43070
 6.65000   29.12    27.98   4.42500
 6.60000   29.12    27.97   4.42160
 6.55000   29.12    27.97   4.41080
 6.50000   29.12    27.97   4.41310
 6.45000   29.12    27.97   4.41470
 6.40000   29.12    27.98   4.41920
 6.35000   29.12    27.99   4.41060
 6.30000   29.13    28.00   4.40950
 6.25000   29.13    28.01   4.40370
 6.20000   29.13    28.02   4.39730
 6.15000   29.13    28.03   4.39110
 6.10000   29.13    28.03   4.38650
 6.05000   29.13    28.04   4.37910
 6.00000   29.13    28.04   4.38070
 5.95000   29.13    28.03   4.37030
 5.90000   29.13    28.03   4.36990
 5.85000   29.13    28.02   4.36100
 5.80000   29.13    28.01   4.35420
 5.75000   29.13    28.00   4.34690
 5.70000   29.13    28.00   4.34480
 5.65000   29.13    28.00   4.34140
 5.60000   29.13    27.99   4.33760
 5.55000   29.14    27.99   4.33710
 5.50000   29.14    27.99   4.33390
 5.45000   29.14    27.99   4.32750
 5.40000   29.14    27.99   4.31960
 5.35000   29.14    27.99   4.32310
 5.30000   29.14    27.99   4.31700
 5.25000   29.15    28.00   4.31520
 5.20000   29.15    28.00   4.31220
 5.15000   29.15    28.00   4.30410
 5.10000   29.15    28.01   4.30560
 5.05000   29.15    28.01   4.29760
 5.00000   29.15    28.01   4.29420
 4.95000   29.15    28.01   4.28990
 4.90000   29.16    28.01   4.28780
 4.85000   29.16    28.00   4.28690
 4.80000   29.16    28.00   4.28080
 4.75000   29.16    28.00   4.27440
 4.70000   29.16    28.00   4.27260
 4.65000   29.16    28.00   4.26630
 4.60000   29.16    27.99   4.26620
 4.55000   29.16    27.99   4.26080
 4.50000   29.17    27.99   4.25510
 4.45000   29.17    27.99   4.25400
 4.40000   29.17    27.99   4.24490
 4.35000   29.17    27.99   4.24170
 4.30000   29.17    28.00   4.23500
 4.25000   29.17    28.00   4.22520
 4.20000   29.18    28.01   4.21890
 4.15000   29.18    28.01   4.21130
 4.10000   29.18    28.01   4.20560
 4.05000   29.18    28.01   4.19820
 4.00000   29.19    28.01   4.18480
 3.95000   29.19    28.00   4.17110
 3.90000   29.19    28.00   4.16150
 3.85000   29.19    28.00   4.14440
 3.80000   29.19    28.00   4.12620
 3.75000   29.19    28.00   4.10670
 3.70000   29.19    28.00   4.08510
 3.65000   29.20    28.00   4.06150
 3.60000   29.20    28.00   4.03100
 3.55000   29.20    28.00   3.99640
 3.50000   29.20    28.00   3.95940
 3.45000   29.20    28.00   3.92680
 3.40000   29.20    28.00   3.88510
 3.35000   29.20    28.01   3.84560
 3.30000   29.21    28.01   3.81430
 3.25000   29.21    28.01   3.78280
 3.20000   29.21    28.01   3.76000
 3.15000   29.21    28.01   3.74690
 3.10000   29.22    28.01   3.74960
 3.05000   29.22    28.01   3.76610
 3.00000   29.22    28.01   3.80430
 2.95000   29.22    28.00   3.86110
 2.90000   29.22    28.00   3.93780
 2.85000   29.22    28.00   4.02680
 2.80000   29.22    27.99   4.12790
 2.75000   29.22    27.99   4.22980
 2.70000   29.22    27.99   4.33000
 2.65000   29.23    27.99   4.40870
 2.60000   29.23    27.99   4.47220
 2.55000   29.23    27.99   4.51270
 2.50000   29.23    27.99   4.52630
 2.45000   29.23    27.99   4.52870
 2.40000   29.23    27.99   4.51570
 2.35000   29.24    27.99   4.50170
 2.30000   29.24    27.99   4.48590
 2.25000   29.24    28.00   4.47070
 2.20000   29.24    28.00   4.45880
 2.15000   29.24    28.00   4.44580
 2.10000   29.24    28.01   4.43390
 2.05000   29.24    28.01   4.42310
 2.00000   29.24    28.01   4.41620
 1.95000   29.25    28.01   4.41330
 1.90000   29.25    28.01   4.40590
 1.85000   29.25    28.01   4.39940
 1.80000   29.25    28.01   4.39500
 1.75000   29.25    28.01   4.38450
 1.70000   29.25    28.00   4.38120
 1.65000   29.25    28.00   4.37760
 1.60000   29.25    28.00   4.37490
 1.55000   29.26    27.99   4.36560
 1.50000   29.26    27.99   4.36860
 1.45000   29.26    27.99   4.35970
 1.40000   29.26    27.98   4.35800
 1.35000   29.26    27.98   4.35490
 1.30000   29.26    27.98   4.35870
 1.25000   29.26    27.98   4.34970
 1.20000   29.26    27.98   4.35160
 1.15000   29.26    27.98   4.34670
 1.10000   29.26    27.99   4.34210
 1.05000   29.26    27.99   4.33940
 1.00000   29.26    27.99   4.33740
 0.95000   29.26    27.99   4.33560
 0.90000   29.26    28.00   4.33240
 0.85000   29.26    27.99   4.33280
 0.80000   29.26    27.99   4.33280
 0.75000   29.26    27.99   4.33000
 0.70000   29.26    27.99   4.32770
 0.65000   29.26    27.99   4.32710
 0.60000   29.26    27.99   4.32620
 0.55000   29.26    27.98   4.32560
 0.50000   29.26    27.98   4.32330
 0.45000   29.26    27.98   4.32260
 0.40000   29.26    27.98   4.32220
 0.35000   29.26    27.98   4.32100
 0.30000   29.26    27.98   4.31900
 0.25000   29.26    27.97   4.31810
 0.20000   29.26    27.96   4.31930
 0.15000   29.26    27.95   4.31610
 0.10000   29.25    27.94   4.31700
 0.05000   29.25    27.94   4.32000
-0.00000   29.25    27.93   4.32090
