 Field[T] Tsmpl[K] Tcntr[K] Signal
 7.00000    4.87     3.21   2.69780
 6.95000    4.86     3.20   2.73310
 6.90000    4.86     3.20   2.75530
 6.85000    4.87     3.20   2.79350
 6.80000    4.88     3.20   2.83320
 6.75000    4.88     3.20   2.87710
 6.70000    4.88     3.20   2.91510
 6.65000    4.89     3.20   2.94090
 6.60000    4.89     3.20   2.98000
 6.55000    4.89     3.19   3.02030
 6.50000    4.90     3.20   3.06010
 6.45000    4.90     3.20   3.10240
 6.40000    4.91     3.20   3.14470
 6.35000    4.91     3.21   3.18380
 6.30000    4.92     3.20   3.21730
 6.25000    4.93     3.21   3.25220
 6.20000    4.94     3.21   3.28230
 6.15000    4.95     3.20   3.32410
 6.10000    4.96     3.21   3.36240
 6.05000    4.97     3.20   3.40880
 6.00000    4.98     3.21   3.45400
 5.95000    4.97     3.21   3.50080
 5.90000    4.94     3.21   3.53330
 5.85000    4.96     3.21   3.56340
 5.80000    5.01     3.21   3.59140
 5.75000    5.03     3.21   3.61270
 5.70000    5.03     3.21   3.63110
 5.65000    5.03     3.20   3.64560
 5.60000    5.03     3.20   3.66140
 5.55000    5.03     3.20   3.66990
 5.50000    5.03     3.20   3.67160
 5.45000    5.03     3.20   3.66190
 5.40000    5.02     3.20   3.64970
 5.35000    5.02     3.20   3.63760
 5.30000    5.02     3.20   3.62840
 5.25000    5.02     3.20   3.61470
 5.20000    5.02     3.20   3.58850
 5.15000    5.02     3.20   3.55460
 5.10000    4.97     3.21   3.52110
 5.05000    5.02     3.21   3.47880
 5.00000    5.03     3.21   3.41870
 4.95000    5.03     3.21   3.34470
 4.90000    5.05     3.21   3.24760
 4.85000    5.05     3.20   3.13040
 4.80000    5.05     3.21   2.99180
 4.75000    5.06     3.21   2.82780
 4.70000    5.06     3.20   2.63080
 4.65000    5.06     3.20   2.40490
 4.60000    5.06     3.20   2.15910
 4.55000    5.07     3.20   1.89990
 4.50000    5.07     3.20   1.64300
 4.45000    5.07     3.20   1.39300
 4.40000    5.07     3.20   1.16490
 4.35000    5.07     3.20   0.95650
 4.30000    5.04     3.20   0.78500
 4.25000    5.08     3.20   0.63650
 4.20000    5.09     3.20   0.51370
 4.15000    5.08     3.20   0.41590
 4.10000    5.11     3.20   0.33620
 4.05000    5.11     3.20   0.27950
 4.00000    5.11     3.20   0.23730
 3.95000    5.11     3.20   0.20630
 3.90000    5.10     3.19   0.18890
 3.85000    5.11     3.20   0.18120
 3.80000    5.12     3.20   0.18680
 3.75000    5.13     3.21   0.20560
 3.70000    5.13     3.19   0.23510
 3.65000    5.13     3.20   0.27300
 3.60000    5.13     3.20   0.33230
 3.55000    5.13     3.20   0.39250
 3.50000    5.13     3.20   0.46990
 3.45000    5.13     3.19   0.55110
 3.40000    5.14     3.20   0.64730
 3.35000    5.13     3.21   0.75430
 3.30000    5.14     3.20   0.86580
 3.25000    5.14     3.20   0.98200
 3.20000    5.14     3.20   1.08550
 3.15000    5.13     3.20   1.19930
 3.10000    5.13     3.20   1.26760
 3.05000    5.13     3.19   1.33110
 3.00000    5.12     3.20   1.37850
 2.95000    5.12     3.20   1.41830
 2.90000    5.12     3.20   1.46300
 2.85000    5.13     3.20   1.51410
 2.80000    5.12     3.19   1.53420
 2.75000    5.12     3.19   1.56250
 2.70000    5.12     3.20   1.62450
 2.65000    5.12     3.20   1.68830
 2.60000    5.13     3.20   1.73640
 2.55000    5.13     3.19   1.78830
 2.50000    5.12     3.19   1.83490
 2.45000    5.11     3.20   1.87890
 2.40000    5.12     3.20   1.92550
 2.35000    5.12     3.19   1.96530
 2.30000    5.12     3.20   2.00650
 2.25000    5.12     3.20   2.04900
 2.20000    5.12     3.20   2.10540
 2.15000    5.13     3.20   2.15030
 2.10000    5.12     3.20   2.18830
 2.05000    5.12     3.19   2.22130
 2.00000    5.11     3.20   2.26320
 1.95000    5.11     3.20   2.30640
 1.90000    5.11     3.20   2.34550
 1.85000    5.10     3.20   2.38160
 1.80000    5.10     3.19   2.40990
 1.75000    5.09     3.20   2.42780
 1.70000    5.07     3.19   2.45000
 1.65000    5.06     3.20   2.47150
 1.60000    5.05     3.19   2.49090
 1.55000    5.04     3.20   2.52090
 1.50000    5.03     3.19   2.55130
 1.45000    5.01     3.19   2.58080
 1.40000    5.00     3.19   2.61100
 1.35000    4.98     3.19   2.63690
 1.30000    4.97     3.19   2.65900
 1.25000    4.97     3.19   2.67920
 1.20000    4.95     3.19   2.70220
 1.15000    4.95     3.20   2.72570
 1.10000    4.94     3.19   2.74660
 1.05000    4.93     3.19   2.76960
 1.00000    4.92     3.18   2.79050
 0.95000    4.91     3.19   2.80530
 0.90000    4.90     3.20   2.82260
 0.85000    4.89     3.19   2.83490
 0.80000    4.87     3.19   2.84600
 0.75000    4.86     3.19   2.85730
 0.70000    4.85     3.18   2.86980
 0.65000    4.83     3.18   2.87930
 0.60000    4.81     3.17   2.89040
 0.55000    4.80     3.17   2.89470
 0.50000    4.79     3.17   2.90820
 0.45000    4.77     3.16   2.91180
 0.40000    4.75     3.15   2.91790
 0.35000    4.72     3.15   2.92180
 0.30000    4.71     3.14   2.92780
 0.25000    4.69     3.13   2.92880
 0.20000    4.67     3.13   2.93620
 0.15000    4.65     3.12   2.93780
 0.10000    4.63     3.12   2.93940
 0.05000    4.61     3.11   2.93980
-0.00000    4.59     3.12   2.94370
