 Field[T] Tsmpl[K] Tcntr[K] Signal
 0.00000    4.36     3.20   5.06600
 0.05000    4.36     3.21   5.07330
 0.10000    4.37     3.19   5.06810
 0.15000    4.36     3.20   5.06830
 0.20000    4.36     3.19   5.06350
 0.25000    4.36     3.19   5.06100
 0.30000    4.36     3.20   5.05380
 0.35000    4.36     3.20   5.04550
 0.40000    4.36     3.20   5.04010
 0.45000    4.37     3.20   5.02490
 0.50000    4.36     3.20   5.01450
 0.55000    4.37     3.20   5.00230
 0.60000    4.37     3.20   4.98080
 0.65000    4.37     3.20   4.96380
 0.70000    4.37     3.20   4.93550
 0.75000    4.37     3.20   4.91720
 0.80000    4.37     3.20   4.89080
 0.85000    4.38     3.20   4.86760
 0.90000    4.37     3.20   4.84190
 0.95000    4.37     3.21   4.81460
 1.00000    4.39     3.19   4.78090
 1.05000    4.39     3.20   4.74380
 1.10000    4.39     3.20   4.71170
 1.15000    4.39     3.19   4.67400
 1.20000    4.39     3.20   4.63530
 1.25000    4.39     3.19   4.59530
 1.30000    4.39     3.19   4.55610
 1.35000    4.39     3.20   4.51300
 1.40000    4.39     3.20   4.47090
 1.45000    4.39     3.20   4.42920
 1.50000    4.39     3.19   4.38060
 1.55000    4.39     3.20   4.33100
 1.60000    4.39     3.20   4.27840
 1.65000    4.39     3.20   4.22880
 1.70000    4.39     3.21   4.17720
 1.75000    4.38     3.20   4.12370
 1.80000    4.40     3.20   4.06450
 1.85000    4.40     3.20   4.00500
 1.90000    4.40     3.20   3.93840
 1.95000    4.39     3.20   3.87710
 2.00000    4.39     3.20   3.81440
 2.05000    4.39     3.21   3.74730
 2.10000    4.40     3.21   3.68720
 2.15000    4.40     3.20   3.62300
 2.20000    4.40     3.20   3.56150
 2.25000    4.40     3.20   3.48990
 2.30000    4.41     3.20   3.42200
 2.35000    4.41     3.20   3.34830
 2.40000    4.41     3.20   3.28130
 2.45000    4.41     3.20   3.20860
 2.50000    4.42     3.20   3.13470
 2.55000    4.43     3.20   3.06180
 2.60000    4.43     3.20   2.99180
 2.65000    4.43     3.20   2.92220
 2.70000    4.42     3.20   2.85140
 2.75000    4.42     3.20   2.77380
 2.80000    4.42     3.20   2.69430
 2.85000    4.42     3.20   2.61780
 2.90000    4.42     3.20   2.53820
 2.95000    4.42     3.20   2.45490
 3.00000    4.41     3.21   2.37640
 3.05000    4.40     3.20   2.29810
 3.10000    4.40     3.21   2.21230
 3.15000    4.41     3.22   2.13020
 3.20000    4.41     3.21   2.03830
 3.25000    4.41     3.21   1.96370
 3.30000    4.41     3.21   1.88580
 3.35000    4.41     3.21   1.80830
 3.40000    4.41     3.21   1.71490
 3.45000    4.41     3.21   1.61780
 3.50000    4.42     3.21   1.48990
 3.55000    4.42     3.21   1.35930
 3.60000    4.42     3.21   1.23530
 3.65000    4.43     3.21   1.13530
 3.70000    4.43     3.21   1.04930
 3.75000    4.43     3.21   0.96460
 3.80000    4.44     3.21   0.86730
 3.85000    4.44     3.22   0.76590
 3.90000    4.45     3.21   0.65010
 3.95000    4.46     3.22   0.53290
 4.00000    4.46     3.22   0.42730
 4.05000    4.46     3.22   0.34240
 4.10000    4.47     3.22   0.27820
 4.15000    4.47     3.22   0.23430
 4.20000    4.47     3.22   0.20500
 4.25000    4.47     3.23   0.19220
 4.30000    4.47     3.23   0.19340
 4.35000    4.48     3.23   0.20420
 4.40000    4.49     3.23   0.23010
 4.45000    4.49     3.23   0.26560
 4.50000    4.50     3.23   0.32450
 4.55000    4.50     3.22   0.40390
 4.60000    4.50     3.22   0.50800
 4.65000    4.50     3.22   0.64410
 4.70000    4.50     3.23   0.82250
 4.75000    4.50     3.23   1.05570
 4.80000    4.51     3.23   1.35390
 4.85000    4.52     3.24   1.73320
 4.90000    4.54     3.25   2.19700
 4.95000    4.55     3.25   2.74980
 5.00000    4.56     3.25   3.37380
 5.05000    4.57     3.26   4.06830
 5.10000    4.58     3.26   4.77400
 5.15000    4.60     3.25   5.45680
 5.20000    4.60     3.25   6.09550
 5.25000    4.61     3.25   6.65830
 5.30000    4.61     3.25   7.13870
 5.35000    4.62     3.24   7.52270
 5.40000    4.62     3.25   7.83460
 5.45000    4.62     3.24   8.06720
 5.50000    4.63     3.26   8.24070
 5.55000    4.63     3.26   8.35800
 5.60000    4.63     3.26   8.43500
 5.65000    4.64     3.25   8.46310
 5.70000    4.64     3.25   8.45810
 5.75000    4.66     3.26   8.41790
 5.80000    4.66     3.26   8.35590
 5.85000    4.67     3.25   8.26880
 5.90000    4.68     3.26   8.15360
 5.95000    4.69     3.26   8.03300
 6.00000    4.70     3.26   7.89510
 6.05000    4.71     3.25   7.75740
 6.10000    4.72     3.25   7.61150
 6.15000    4.72     3.26   7.46930
 6.20000    4.73     3.25   7.32970
 6.25000    4.74     3.25   7.18180
 6.30000    4.74     3.25   7.04010
 6.35000    4.75     3.25   6.90350
 6.40000    4.75     3.25   6.76810
 6.45000    4.76     3.25   6.63460
 6.50000    4.76     3.24   6.51470
 6.55000    4.77     3.25   6.39060
 6.60000    4.77     3.24   6.27280
 6.65000    4.78     3.23   6.15730
 6.70000    4.78     3.24   6.04410
 6.75000    4.79     3.23   5.93430
 6.80000    4.79     3.23   5.82160
 6.85000    4.80     3.24   5.72190
 6.90000    4.81     3.23   5.62500
 6.95000    4.82     3.24   5.53120
 7.00000    4.82     3.23   5.44460
