 Field[T] Tsmpl[K] Tcntr[K] SignalIntensity
 0.00000    1.73     1.73   0.07951
 0.05000    1.73     1.73   0.07949
 0.10000    1.73     1.73   0.07958
 0.15000    1.73     1.73   0.07967
 0.20000    1.73     1.73   0.07991
 0.25000    1.73     1.73   0.07982
 0.30000    1.73     1.73   0.07998
 0.35000    1.73     1.73   0.08013
 0.40000    1.73     1.73   0.08016
 0.45000    1.73     1.73   0.08032
 0.50000    1.73     1.73   0.08069
 0.55000    1.73     1.73   0.08093
 0.60000    1.73     1.73   0.08128
 0.65000    1.73     1.73   0.08162
 0.70000    1.73     1.73   0.08189
 0.75000    1.73     1.73   0.08229
 0.80000    1.73     1.73   0.08269
 0.85000    1.73     1.73   0.08310
 0.90000    1.73     1.73   0.08362
 0.95000    1.73     1.73   0.08414
 1.00000    1.73     1.73   0.08464
 1.05000    1.73     1.73   0.08532
 1.10000    1.73     1.73   0.08585
 1.15000    1.73     1.73   0.08642
 1.20000    1.73     1.73   0.08705
 1.25000    1.73     1.73   0.08785
 1.30000    1.73     1.73   0.08868
 1.35000    1.73     1.73   0.08958
 1.40000    1.73     1.73   0.09055
 1.45000    1.73     1.73   0.09154
 1.50000    1.73     1.73   0.09272
 1.55000    1.73     1.73   0.09376
 1.60000    1.73     1.73   0.09472
 1.65000    1.73     1.73   0.09561
 1.70000    1.73     1.73   0.09681
 1.75000    1.73     1.73   0.09772
 1.80000    1.73     1.73   0.09849
 1.85000    1.73     1.73   0.09937
 1.90000    1.73     1.73   0.10011
 1.95000    1.73     1.73   0.10076
 2.00000    1.73     1.73   0.10142
 2.05000    1.73     1.73   0.10233
 2.10000    1.73     1.73   0.10310
 2.15000    1.73     1.73   0.10410
 2.20000    1.73     1.73   0.10541
 2.25000    1.73     1.73   0.10655
 2.30000    1.73     1.73   0.10794
 2.35000    1.73     1.73   0.10940
 2.40000    1.73     1.73   0.11110
 2.45000    1.73     1.73   0.11294
 2.50000    1.73     1.73   0.11504
 2.55000    1.73     1.73   0.11714
 2.60000    1.73     1.73   0.11967
 2.65000    1.73     1.73   0.12185
 2.70000    1.73     1.73   0.12401
 2.75000    1.73     1.73   0.12570
 2.80000    1.73     1.73   0.12746
 2.85000    1.73     1.73   0.12910
 2.90000    1.73     1.73   0.13064
 2.95000    1.73     1.73   0.13199
 3.00000    1.73     1.73   0.13347
 3.05000    1.73     1.73   0.13505
 3.10000    1.73     1.73   0.13663
 3.15000    1.73     1.73   0.13853
 3.20000    1.73     1.73   0.14050
 3.25000    1.73     1.73   0.14220
 3.30000    1.73     1.73   0.14414
 3.35000    1.73     1.73   0.14616
 3.40000    1.73     1.73   0.14887
 3.45000    1.73     1.73   0.15210
 3.50000    1.73     1.73   0.15679
 3.55000    1.73     1.73   0.16105
 3.60000    1.73     1.73   0.16511
 3.65000    1.73     1.73   0.16822
 3.70000    1.73     1.73   0.16952
 3.75000    1.73     1.73   0.17010
 3.80000    1.73     1.73   0.16850
 3.85000    1.73     1.73   0.16286
 3.90000    1.73     1.73   0.14926
 3.95000    1.73     1.73   0.13028
 4.00000    1.73     1.73   0.11245
 4.05000    1.73     1.73   0.09573
 4.10000    1.73     1.73   0.07794
 4.15000    1.73     1.73   0.06043
 4.20000    1.73     1.73   0.04484
 4.25000    1.73     1.73   0.03200
 4.30000    1.73     1.73   0.02263
 4.35000    1.73     1.73   0.01553
 4.40000    1.73     1.73   0.01048
 4.45000    1.73     1.73   0.00699
 4.50000    1.73     1.73   0.00472
 4.55000    1.73     1.73   0.00333
 4.60000    1.73     1.73   0.00244
 4.65000    1.73     1.73   0.00188
 4.70000    1.73     1.73   0.00154
 4.75000    1.73     1.73   0.00138
 4.80000    1.73     1.73   0.00126
 4.85000    1.73     1.73   0.00132
 4.90000    1.73     1.73   0.00141
 4.95000    1.73     1.73   0.00154
 5.00000    1.73     1.73   0.00191
 5.05000    1.73     1.73   0.00229
 5.10000    1.73     1.73   0.00290
 5.15000    1.73     1.73   0.00369
 5.20000    1.73     1.73   0.00468
 5.25000    1.73     1.73   0.00593
 5.30000    1.73     1.73   0.00743
 5.35000    1.73     1.73   0.00910
 5.40000    1.73     1.73   0.01100
 5.45000    1.73     1.73   0.01298
 5.50000    1.73     1.73   0.01481
 5.55000    1.73     1.73   0.01669
 5.60000    1.73     1.73   0.01835
 5.65000    1.73     1.73   0.02001
 5.70000    1.73     1.73   0.02153
 5.75000    1.73     1.73   0.02300
 5.80000    1.73     1.73   0.02452
 5.85000    1.73     1.73   0.02594
 5.90000    1.73     1.73   0.02750
 5.95000    1.73     1.73   0.02905
 6.00000    1.73     1.73   0.03070
 6.05000    1.73     1.73   0.03226
 6.10000    1.73     1.73   0.03404
 6.15000    1.73     1.73   0.03585
 6.20000    1.73     1.73   0.03778
 6.25000    1.73     1.73   0.03966
 6.30000    1.73     1.73   0.04172
 6.35000    1.73     1.73   0.04379
 6.40000    1.73     1.73   0.04588
 6.45000    1.73     1.73   0.04803
 6.50000    1.73     1.73   0.05002
 6.55000    1.73     1.73   0.05199
 6.60000    1.73     1.73   0.05386
 6.65000    1.73     1.73   0.05572
 6.70000    1.73     1.73   0.05744
 6.75000    1.73     1.73   0.05921
 6.80000    1.73     1.73   0.06106
 6.85000    1.73     1.73   0.06272
 6.90000    1.73     1.73   0.06419
 6.95000    1.73     1.73   0.06568
 7.00000    1.73     1.73   0.06703
