 Field[T] Tsmpl[K] Tcntr[K] Signal
 0.00000    9.39     7.93   4.64670
 0.05000    9.40     7.92   4.67170
 0.10000    9.40     7.94   4.68470
 0.15000    9.40     7.94   4.69060
 0.20000    9.40     7.93   4.70310
 0.25000    9.40     7.93   4.69860
 0.30000    9.40     7.95   4.70770
 0.35000    9.40     7.95   4.70350
 0.40000    9.40     7.96   4.68930
 0.45000    9.40     7.97   4.68790
 0.50000    9.40     7.97   4.67830
 0.55000    9.40     7.96   4.67230
 0.60000    9.39     7.96   4.65790
 0.65000    9.39     7.96   4.64850
 0.70000    9.38     7.96   4.63240
 0.75000    9.37     7.97   4.62620
 0.80000    9.37     7.98   4.61820
 0.85000    9.37     7.97   4.61030
 0.90000    9.36     7.98   4.60120
 0.95000    9.36     7.98   4.60280
 1.00000    9.36     7.97   4.59730
 1.05000    9.36     7.99   4.59310
 1.10000    9.36     7.98   4.59290
 1.15000    9.36     7.98   4.59390
 1.20000    9.36     7.98   4.59610
 1.25000    9.36     8.00   4.59940
 1.30000    9.36     7.99   4.61410
 1.35000    9.36     8.00   4.61510
 1.40000    9.36     7.99   4.61590
 1.45000    9.36     8.00   4.62410
 1.50000    9.36     7.99   4.63380
 1.55000    9.36     7.99   4.64980
 1.60000    9.36     7.99   4.66020
 1.65000    9.36     7.99   4.67400
 1.70000    9.36     7.99   4.69130
 1.75000    9.36     8.01   4.71050
 1.80000    9.36     7.99   4.73550
 1.85000    9.36     7.98   4.75250
 1.90000    9.36     7.99   4.76730
 1.95000    9.36     8.00   4.78720
 2.00000    9.35     8.01   4.81360
 2.05000    9.36     8.01   4.83010
 2.10000    9.36     8.01   4.84370
 2.15000    9.36     8.00   4.87450
 2.20000    9.36     8.00   4.90050
 2.25000    9.36     8.01   4.92540
 2.30000    9.37     8.00   4.95750
 2.35000    9.37     8.00   4.99370
 2.40000    9.37     8.00   5.02870
 2.45000    9.37     8.00   5.06300
 2.50000    9.37     8.01   5.10010
 2.55000    9.38     8.01   5.14300
 2.60000    9.38     8.00   5.18580
 2.65000    9.38     8.00   5.24060
 2.70000    9.38     8.00   5.29090
 2.75000    9.38     8.00   5.34670
 2.80000    9.38     7.99   5.41570
 2.85000    9.39     7.99   5.47550
 2.90000    9.39     8.00   5.54900
 2.95000    9.39     8.00   5.61970
 3.00000    9.39     7.99   5.69800
 3.05000    9.39     8.00   5.77730
 3.10000    9.40     8.01   5.86150
 3.15000    9.40     8.01   5.95020
 3.20000    9.40     8.00   6.03990
 3.25000    9.41     8.03   6.13610
 3.30000    9.41     8.01   6.23970
 3.35000    9.42     0.00   6.34680
 3.40000    9.42     8.02   6.45670
 3.45000    9.42     8.02   6.58310
 3.50000    9.42     8.01   6.72230
 3.55000    9.43     8.01   6.87020
 3.60000    9.43     8.03   7.02620
 3.65000    9.43     8.01   7.18340
 3.70000    9.43     8.02   7.30540
 3.75000    9.44     8.02   7.42030
 3.80000    9.44     8.00   7.46240
 3.85000    9.45     8.00   7.39040
 3.90000    9.45     8.01   7.20360
 3.95000    9.45     8.01   6.88070
 4.00000    9.46     8.00   6.46150
 4.05000    9.46     8.01   5.96520
 4.10000    9.47     8.02   5.35430
 4.15000    9.48     8.03   4.64400
 4.20000    9.49     8.02   3.86960
 4.25000    9.49     8.01   3.10350
 4.30000    9.50     8.04   2.41850
 4.35000    9.51     8.03   1.85910
 4.40000    9.52     8.03   1.43040
 4.45000    9.52     8.04   1.12050
 4.50000    9.53     8.04   0.89960
 4.55000    9.54     8.05   0.74500
 4.60000    9.55     8.04   0.63810
 4.65000    9.56     8.05   0.56730
 4.70000    9.57     8.04   0.52080
 4.75000    9.57     8.04   0.49300
 4.80000    9.58     8.05   0.47990
 4.85000    9.59     8.03   0.48270
 4.90000    9.60     8.05   0.49970
 4.95000    9.61     8.04   0.52040
 5.00000    9.62     8.03   0.55790
 5.05000    9.63     8.04   0.60050
 5.10000    9.63     8.03   0.65050
 5.15000    9.64     8.04   0.71230
 5.20000    9.65     8.04   0.77230
 5.25000    9.65     8.04   0.84500
 5.30000    9.66     8.04   0.92120
 5.35000    9.67     8.05   1.00540
 5.40000    9.68     8.06   1.09350
 5.45000    9.69     8.06   1.18420
 5.50000    9.70     8.05   1.28130
 5.55000    9.70     8.06   1.38660
 5.60000    9.71     8.07   1.49540
 5.65000    9.72     8.05   1.61050
 5.70000    9.73     8.05   1.72750
 5.75000    9.73     8.06   1.84400
 5.80000    9.74     8.07   1.96180
 5.85000    9.75     8.07   2.07390
 5.90000    9.75     8.08   2.18940
 5.95000    9.76     8.08   2.30000
 6.00000    9.77     8.08   2.40650
 6.05000    9.78     8.06   2.50820
 6.10000    9.79     8.06   2.60730
 6.15000    9.80     8.06   2.71150
 6.20000    9.80     8.06   2.80350
 6.25000    9.81     8.07   2.88870
 6.30000    9.82     8.10   2.96740
 6.35000    9.82     8.09   3.03850
 6.40000    9.83     8.08   3.10160
 6.45000    9.84     8.08   3.15930
 6.50000    9.85     8.08   3.21230
 6.55000    9.85     8.08   3.27230
 6.60000    9.86     8.08   3.32800
 6.65000    9.87     8.07   3.38100
 6.70000    9.87     8.06   3.44100
 6.75000    9.88     8.09   3.50290
 6.80000    9.88     8.07   3.55380
 6.85000    9.89     8.06   3.60470
 6.90000    9.89     8.06   3.65380
 6.95000    9.90     8.06   3.70730
 7.00000    9.90     8.05   3.75700
