 Field[T] Tsmpl[K] Tcntr[K] Signal
 7.00000   19.52    18.00   3.89950
 6.95000   19.52    17.99   3.89010
 6.90000   19.52    17.99   3.87450
 6.85000   19.52    17.99   3.86990
 6.80000   19.52    17.99   3.85240
 6.75000   19.52    17.99   3.82990
 6.70000   19.52    17.99   3.81070
 6.65000   19.52    18.00   3.78380
 6.60000   19.52    18.00   3.75800
 6.55000   19.52    18.00   3.72870
 6.50000   19.52    18.00   3.70220
 6.45000   19.52    18.00   3.67150
 6.40000   19.52    18.00   3.63710
 6.35000   19.51    18.00   3.60400
 6.30000   19.51    18.00   3.56230
 6.25000   19.51    18.00   3.51850
 6.20000   19.51    18.00   3.46870
 6.15000   19.51    18.00   3.42680
 6.10000   19.51    18.00   3.36720
 6.05000   19.51    18.00   3.30270
 6.00000   19.51    18.00   3.23560
 5.95000   19.51    17.99   3.16170
 5.90000   19.51    17.99   3.08480
 5.85000   19.50    17.99   2.99810
 5.80000   19.50    18.00   2.90400
 5.75000   19.50    18.00   2.79880
 5.70000   19.50    18.00   2.69050
 5.65000   19.50    18.01   2.57170
 5.60000   19.50    18.01   2.45320
 5.55000   19.50    18.00   2.33070
 5.50000   19.50    18.00   2.20080
 5.45000   19.50    18.00   2.07910
 5.40000   19.50    18.00   1.95080
 5.35000   19.50    18.01   1.83780
 5.30000   19.50    18.01   1.72240
 5.25000   19.50    18.00   1.61840
 5.20000   19.50    18.00   1.52360
 5.15000   19.50    18.00   1.43350
 5.10000   19.50    18.00   1.35820
 5.05000   19.50    18.00   1.28900
 5.00000   19.50    18.00   1.22970
 4.95000   19.50    18.00   1.18150
 4.90000   19.50    17.99   1.15230
 4.85000   19.50    17.99   1.13270
 4.80000   19.51    17.99   1.12930
 4.75000   19.51    17.99   1.14320
 4.70000   19.51    18.00   1.17860
 4.65000   19.51    18.00   1.23780
 4.60000   19.51    18.01   1.32600
 4.55000   19.52    18.00   1.44780
 4.50000   19.52    18.00   1.61200
 4.45000   19.52    18.00   1.81770
 4.40000   19.52    18.00   2.07860
 4.35000   19.53    18.00   2.38940
 4.30000   19.53    18.01   2.74760
 4.25000   19.53    18.01   3.11570
 4.20000   19.54    18.01   3.48040
 4.15000   19.55    18.01   3.80990
 4.10000   19.55    18.00   4.09820
 4.05000   19.55    18.00   4.32620
 4.00000   19.56    18.00   4.49450
 3.95000   19.56    18.00   4.60660
 3.90000   19.56    18.00   4.67390
 3.85000   19.57    18.00   4.70820
 3.80000   19.57    18.00   4.71220
 3.75000   19.58    18.00   4.71090
 3.70000   19.58    17.99   4.70570
 3.65000   19.58    17.99   4.68220
 3.60000   19.59    17.99   4.66290
 3.55000   19.59    17.99   4.64570
 3.50000   19.59    17.99   4.62390
 3.45000   19.60    18.00   4.60180
 3.40000   19.60    18.01   4.57920
 3.35000   19.60    18.01   4.55800
 3.30000   19.61    18.01   4.54530
 3.25000   19.61    18.01   4.53510
 3.20000   19.62    18.01   4.52340
 3.15000   19.62    18.00   4.50790
 3.10000   19.62    18.00   4.49380
 3.05000   19.63    18.00   4.48200
 3.00000   19.63    18.00   4.46940
 2.95000   19.63    18.00   4.46490
 2.90000   19.64    18.01   4.45040
 2.85000   19.64    18.01   4.43970
 2.80000   19.64    18.01   4.42900
 2.75000   19.65    18.01   4.41230
 2.70000   19.65    18.00   4.39950
 2.65000   19.65    17.99   4.38670
 2.60000   19.65    17.99   4.38130
 2.55000   19.66    17.99   4.37410
 2.50000   19.66    17.99   4.36640
 2.45000   19.66    17.99   4.35450
 2.40000   19.66    17.99   4.35230
 2.35000   19.67    18.00   4.34290
 2.30000   19.67    18.00   4.33560
 2.25000   19.67    18.00   4.32970
 2.20000   19.67    18.00   4.32400
 2.15000   19.67    18.00   4.31900
 2.10000   19.67    18.00   4.31570
 2.05000   19.67    18.00   4.30640
 2.00000   19.68    18.01   4.30570
 1.95000   19.68    18.00   4.29970
 1.90000   19.68    18.01   4.30240
 1.85000   19.68    18.01   4.29730
 1.80000   19.68    18.00   4.29360
 1.75000   19.68    18.00   4.28770
 1.70000   19.68    18.00   4.28250
 1.65000   19.68    17.99   4.28050
 1.60000   19.68    17.99   4.27130
 1.55000   19.68    17.99   4.27200
 1.50000   19.68    17.99   4.26330
 1.45000   19.68    17.99   4.27060
 1.40000   19.68    17.99   4.25370
 1.35000   19.68    17.99   4.26220
 1.30000   19.68    17.99   4.25960
 1.25000   19.68    17.99   4.26290
 1.20000   19.68    17.99   4.25780
 1.15000   19.67    17.99   4.24880
 1.10000   19.67    17.98   4.25310
 1.05000   19.67    17.98   4.24940
 1.00000   19.67    17.98   4.25320
 0.95000   19.66    17.98   4.25020
 0.90000   19.66    17.99   4.25410
 0.85000   19.65    17.99   4.25840
 0.80000   19.65    17.99   4.24980
 0.75000   19.64    17.99   4.24530
 0.70000   19.64    17.99   4.24020
 0.65000   19.63    17.99   4.24150
 0.60000   19.63    17.98   4.24040
 0.55000   19.62    17.98   4.24320
 0.50000   19.62    17.98   4.24600
 0.45000   19.61    17.98   4.24490
 0.40000   19.61    17.97   4.24930
 0.35000   19.60    17.97   4.25480
 0.30000   19.60    17.98   4.25910
 0.25000   19.59    17.97   4.25820
 0.20000   19.59    17.97   4.26470
 0.15000   19.58    17.96   4.26700
 0.10000   19.57    17.94   4.26810
 0.05000   19.56    17.91   4.26370
-0.00000   19.56    17.90   4.26610
