 Field[T] Tsmpl[K] Tcntr[K] SignalIntensity
 0.00000    1.73     1.73   0.05372
 0.05000    1.73     1.73   0.05371
 0.10000    1.73     1.73   0.05377
 0.15000    1.73     1.73   0.05383
 0.20000    1.73     1.73   0.05399
 0.25000    1.73     1.73   0.05393
 0.30000    1.73     1.73   0.05404
 0.35000    1.73     1.73   0.05414
 0.40000    1.73     1.73   0.05416
 0.45000    1.73     1.73   0.05427
 0.50000    1.73     1.73   0.05452
 0.55000    1.73     1.73   0.05468
 0.60000    1.73     1.73   0.05492
 0.65000    1.73     1.73   0.05515
 0.70000    1.73     1.73   0.05533
 0.75000    1.73     1.73   0.05560
 0.80000    1.73     1.73   0.05587
 0.85000    1.73     1.73   0.05615
 0.90000    1.73     1.73   0.05650
 0.95000    1.73     1.73   0.05685
 1.00000    1.73     1.73   0.05719
 1.05000    1.73     1.73   0.05765
 1.10000    1.73     1.73   0.05801
 1.15000    1.73     1.73   0.05839
 1.20000    1.73     1.73   0.05882
 1.25000    1.73     1.73   0.05936
 1.30000    1.73     1.73   0.05992
 1.35000    1.73     1.73   0.06053
 1.40000    1.73     1.73   0.06118
 1.45000    1.73     1.73   0.06185
 1.50000    1.73     1.73   0.06265
 1.55000    1.73     1.73   0.06335
 1.60000    1.73     1.73   0.06400
 1.65000    1.73     1.73   0.06460
 1.70000    1.73     1.73   0.06541
 1.75000    1.73     1.73   0.06603
 1.80000    1.73     1.73   0.06655
 1.85000    1.73     1.73   0.06714
 1.90000    1.73     1.73   0.06764
 1.95000    1.73     1.73   0.06808
 2.00000    1.73     1.73   0.06853
 2.05000    1.73     1.73   0.06914
 2.10000    1.73     1.73   0.06966
 2.15000    1.73     1.73   0.07034
 2.20000    1.73     1.73   0.07122
 2.25000    1.73     1.73   0.07199
 2.30000    1.73     1.73   0.07293
 2.35000    1.73     1.73   0.07392
 2.40000    1.73     1.73   0.07507
 2.45000    1.73     1.73   0.07631
 2.50000    1.73     1.73   0.07773
 2.55000    1.73     1.73   0.07915
 2.60000    1.73     1.73   0.08086
 2.65000    1.73     1.73   0.08233
 2.70000    1.73     1.73   0.08379
 2.75000    1.73     1.73   0.08493
 2.80000    1.73     1.73   0.08612
 2.85000    1.73     1.73   0.08723
 2.90000    1.73     1.73   0.08827
 2.95000    1.73     1.73   0.08918
 3.00000    1.73     1.73   0.09018
 3.05000    1.73     1.73   0.09125
 3.10000    1.73     1.73   0.09232
 3.15000    1.73     1.73   0.09360
 3.20000    1.73     1.73   0.09493
 3.25000    1.73     1.73   0.09608
 3.30000    1.73     1.73   0.09739
 3.35000    1.73     1.73   0.09876
 3.40000    1.73     1.73   0.10059
 3.45000    1.73     1.73   0.10277
 3.50000    1.73     1.73   0.10594
 3.55000    1.73     1.73   0.10882
 3.60000    1.73     1.73   0.11156
 3.65000    1.73     1.73   0.11366
 3.70000    1.73     1.73   0.11454
 3.75000    1.73     1.73   0.11493
 3.80000    1.73     1.73   0.11385
 3.85000    1.73     1.73   0.11004
 3.90000    1.73     1.73   0.10085
 3.95000    1.73     1.73   0.08803
 4.00000    1.73     1.73   0.07598
 4.05000    1.73     1.73   0.06468
 4.10000    1.73     1.73   0.05266
 4.15000    1.73     1.73   0.04083
 4.20000    1.73     1.73   0.03030
 4.25000    1.73     1.73   0.02162
 4.30000    1.73     1.73   0.01529
 4.35000    1.73     1.73   0.01049
 4.40000    1.73     1.73   0.00708
 4.45000    1.73     1.73   0.00472
 4.50000    1.73     1.73   0.00319
 4.55000    1.73     1.73   0.00225
 4.60000    1.73     1.73   0.00165
 4.65000    1.73     1.73   0.00127
 4.70000    1.73     1.73   0.00104
 4.75000    1.73     1.73   0.00093
 4.80000    1.73     1.73   0.00085
 4.85000    1.73     1.73   0.00089
 4.90000    1.73     1.73   0.00095
 4.95000    1.73     1.73   0.00104
 5.00000    1.73     1.73   0.00129
 5.05000    1.73     1.73   0.00155
 5.10000    1.73     1.73   0.00196
 5.15000    1.73     1.73   0.00249
 5.20000    1.73     1.73   0.00316
 5.25000    1.73     1.73   0.00401
 5.30000    1.73     1.73   0.00502
 5.35000    1.73     1.73   0.00615
 5.40000    1.73     1.73   0.00743
 5.45000    1.73     1.73   0.00877
 5.50000    1.73     1.73   0.01001
 5.55000    1.73     1.73   0.01128
 5.60000    1.73     1.73   0.01240
 5.65000    1.73     1.73   0.01352
 5.70000    1.73     1.73   0.01455
 5.75000    1.73     1.73   0.01554
 5.80000    1.73     1.73   0.01657
 5.85000    1.73     1.73   0.01753
 5.90000    1.73     1.73   0.01858
 5.95000    1.73     1.73   0.01963
 6.00000    1.73     1.73   0.02074
 6.05000    1.73     1.73   0.02180
 6.10000    1.73     1.73   0.02300
 6.15000    1.73     1.73   0.02422
 6.20000    1.73     1.73   0.02553
 6.25000    1.73     1.73   0.02680
 6.30000    1.73     1.73   0.02819
 6.35000    1.73     1.73   0.02959
 6.40000    1.73     1.73   0.03100
 6.45000    1.73     1.73   0.03245
 6.50000    1.73     1.73   0.03380
 6.55000    1.73     1.73   0.03513
 6.60000    1.73     1.73   0.03639
 6.65000    1.73     1.73   0.03765
 6.70000    1.73     1.73   0.03881
 6.75000    1.73     1.73   0.04001
 6.80000    1.73     1.73   0.04126
 6.85000    1.73     1.73   0.04238
 6.90000    1.73     1.73   0.04337
 6.95000    1.73     1.73   0.04438
 7.00000    1.73     1.73   0.04529
