 Field[T] Tsmpl[K] Tcntr[K] Signal
 7.00000    5.83     3.20   3.01790
 6.95000    5.84     3.19   2.57220
 6.90000    5.85     3.21   2.13060
 6.85000    5.87     3.20   1.74230
 6.80000    5.88     3.20   1.40700
 6.75000    5.89     3.20   1.12600
 6.70000    5.90     3.22   0.89210
 6.65000    5.92     3.21   0.70080
 6.60000    5.93     3.20   0.54830
 6.55000    5.94     3.21   0.43090
 6.50000    5.95     3.21   0.33390
 6.45000    5.96     3.22   0.26170
 6.40000    5.96     3.20   0.20490
 6.35000    5.97     3.20   0.16450
 6.30000    5.97     3.20   0.13120
 6.25000    5.98     3.21   0.10820
 6.20000    5.99     3.20   0.09030
 6.15000    5.99     3.20   0.07710
 6.10000    5.99     3.20   0.06800
 6.05000    5.99     3.22   0.06270
 6.00000    6.00     3.21   0.06080
 5.95000    6.01     3.20   0.06390
 5.90000    6.01     3.20   0.06690
 5.85000    6.02     3.19   0.07700
 5.80000    6.02     3.21   0.08900
 5.75000    6.03     3.20   0.11290
 5.70000    6.04     3.21   0.15130
 5.65000    6.05     3.20   0.20600
 5.60000    6.05     3.20   0.29600
 5.55000    6.06     3.22   0.43580
 5.50000    6.07     3.20   0.64740
 5.45000    6.08     3.21   0.95560
 5.40000    6.09     3.20   1.34940
 5.35000    6.10     3.21   1.78770
 5.30000    6.11     3.21   2.17920
 5.25000    6.12     3.20   2.43840
 5.20000    6.13     3.21   2.53530
 5.15000    6.14     3.20   2.50770
 5.10000    6.15     3.22   2.41200
 5.05000    6.16     3.21   2.30890
 5.00000    6.17     3.20   2.21800
 4.95000    6.17     3.20   2.14260
 4.90000    6.18     3.22   2.08200
 4.85000    6.18     3.20   2.04130
 4.80000    6.19     3.20   2.00560
 4.75000    6.20     3.20   1.98270
 4.70000    6.20     3.22   1.96760
 4.65000    6.21     3.21   1.96000
 4.60000    6.21     3.20   1.95240
 4.55000    6.22     3.20   1.95360
 4.50000    6.22     3.20   1.95540
 4.45000    6.23     3.21   1.96020
 4.40000    6.24     3.21   1.96350
 4.35000    6.24     3.20   1.96810
 4.30000    6.25     3.20   1.97430
 4.25000    6.25     3.21   1.98360
 4.20000    6.26     3.21   1.99130
 4.15000    6.26     3.20   2.00320
 4.10000    6.26     3.20   2.00950
 4.05000    6.27     3.20   2.01940
 4.00000    6.27     3.21   2.03140
 3.95000    6.28     3.20   2.04500
 3.90000    6.28     3.21   2.05280
 3.85000    6.28     3.20   2.06680
 3.80000    6.29     3.21   2.07880
 3.75000    6.30     3.22   2.09490
 3.70000    6.30     3.20   2.10660
 3.65000    6.31     3.20   2.11870
 3.60000    6.32     3.20   2.12840
 3.55000    6.32     3.20   2.14410
 3.50000    6.32     3.21   2.15780
 3.45000    6.33     3.20   2.17210
 3.40000    6.33     3.20   2.18280
 3.35000    6.33     3.20   2.19770
 3.30000    6.33     3.21   2.20860
 3.25000    6.34     3.20   2.21960
 3.20000    6.34     3.20   2.23830
 3.15000    6.34     3.20   2.25260
 3.10000    6.35     3.20   2.26520
 3.05000    6.35     3.21   2.27930
 3.00000    6.35     3.20   2.29190
 2.95000    6.36     3.20   2.30400
 2.90000    6.36     3.20   2.31930
 2.85000    6.36     3.21   2.33400
 2.80000    6.37     3.19   2.34680
 2.75000    6.36     3.19   2.35750
 2.70000    6.36     3.20   2.37160
 2.65000    6.36     3.21   2.38320
 2.60000    6.36     3.20   2.39760
 2.55000    6.35     3.20   2.41040
 2.50000    6.34     3.20   2.42170
 2.45000    6.34     3.19   2.43790
 2.40000    6.33     3.21   2.44620
 2.35000    6.32     3.19   2.46100
 2.30000    6.31     3.19   2.47340
 2.25000    6.30     3.19   2.48450
 2.20000    6.29     3.19   2.49840
 2.15000    6.28     3.20   2.51270
 2.10000    6.27     3.19   2.52090
 2.05000    6.26     3.20   2.53460
 2.00000    6.26     3.19   2.54580
 1.95000    6.24     3.19   2.56210
 1.90000    6.24     3.19   2.57040
 1.85000    6.23     3.20   2.58090
 1.80000    6.22     3.19   2.59050
 1.75000    6.21     3.18   2.60200
 1.70000    6.20     3.19   2.60800
 1.65000    6.19     3.19   2.62060
 1.60000    6.18     3.18   2.63340
 1.55000    6.18     3.18   2.63980
 1.50000    6.17     3.18   2.65540
 1.45000    6.16     3.21   2.66360
 1.40000    6.16     3.19   2.67450
 1.35000    6.15     3.19   2.68620
 1.30000    6.15     3.19   2.69460
 1.25000    6.14     3.19   2.69940
 1.20000    6.13     3.19   2.70830
 1.15000    6.12     3.19   2.71760
 1.10000    6.10     3.18   2.72460
 1.05000    6.09     3.18   2.73270
 1.00000    6.07     3.18   2.74010
 0.95000    6.05     3.18   2.74670
 0.90000    6.03     3.18   2.75450
 0.85000    6.01     3.18   2.75850
 0.80000    5.99     3.18   2.76340
 0.75000    5.96     3.17   2.76830
 0.70000    5.94     3.16   2.77200
 0.65000    5.92     3.16   2.77780
 0.60000    5.89     3.15   2.78250
 0.55000    5.86     3.13   2.78830
 0.50000    5.82     3.12   2.79500
 0.45000    5.79     3.12   2.79930
 0.40000    5.75     3.10   2.80410
 0.35000    5.70     3.10   2.80760
 0.30000    5.66     3.09   2.81010
 0.25000    5.62     3.09   2.81390
 0.20000    5.57     3.08   2.81340
 0.15000    5.53     3.08   2.81370
 0.10000    5.49     3.07   2.81490
 0.05000    5.45     3.06   2.81670
-0.00000    5.41     3.06   2.81560
