 Field[T] Tsmpl[K] Tcntr[K] Signal   Mirror[MM]
 0.00000    1.83     1.83   0.12357  -18.0383
 0.02000    1.83     1.83   0.12344  -18.0385
 0.04000    1.83     1.83   0.12359  -18.0409
 0.06000    1.83     1.83   0.12381  -18.0471
 0.08000    1.83     1.83   0.12531  -18.0419
 0.10000    1.83     1.83   0.12544  -18.0405
 0.12000    1.83     1.83   0.12576  -18.0431
 0.14000    1.83     1.83   0.12672  -18.0420
 0.16000    1.83     1.83   0.12720  -18.0393
 0.18000    1.83     1.83   0.12745  -18.0383
 0.20000    1.83     1.83   0.12819  -18.0374
 0.22000    1.83     1.83   0.12864  -18.0348
 0.24000    1.83     1.83   0.12879  -18.0327
 0.26000    1.83     1.83   0.12902  -18.0301
 0.28000    1.83     1.83   0.12964  -18.0283
 0.30000    1.83     1.83   0.12990  -18.0268
 0.32000    1.83     1.83   0.13031  -18.0249
 0.34000    1.83     1.83   0.13061  -18.0226
 0.36000    1.83     1.83   0.13089  -18.0198
 0.38000    1.83     1.83   0.13119  -18.0177
 0.40000    1.83     1.83   0.13156  -18.0160
 0.42000    1.83     1.83   0.13171  -18.0129
 0.44000    1.83     1.83   0.13108  -18.0049
 0.46000    1.83     1.83   0.13162  -18.0048
 0.48000    1.83     1.83   0.13162  -18.0025
 0.50000    1.83     1.83   0.13158  -17.9995
 0.52000    1.83     1.83   0.13175  -17.9975
 0.54000    1.83     1.83   0.13177  -17.9958
 0.56000    1.83     1.83   0.13177  -17.9926
 0.58000    1.83     1.83   0.13184  -17.9930
 0.60000    1.83     1.83   0.13168  -17.9912
 0.62000    1.83     1.83   0.13177  -17.9903
 0.64000    1.83     1.83   0.13132  -17.9886
 0.66000    1.83     1.83   0.13170  -17.9877
 0.68000    1.83     1.83   0.13147  -17.9880
 0.70000    1.83     1.83   0.13125  -17.9864
 0.72000    1.83     1.83   0.13110  -17.9859
 0.74000    1.83     1.83   0.13126  -17.9846
 0.76000    1.83     1.83   0.13115  -17.9845
 0.78000    1.83     1.83   0.13143  -17.9841
 0.80000    1.83     1.83   0.13110  -17.9827
 0.82000    1.83     1.83   0.13140  -17.9828
 0.84000    1.83     1.83   0.13130  -17.9826
 0.86000    1.83     1.83   0.13110  -17.9815
 0.88000    1.83     1.83   0.13102  -17.9815
 0.90000    1.83     1.83   0.13104  -17.9797
 0.92000    1.83     1.83   0.13091  -17.9813
 0.94000    1.83     1.83   0.13095  -17.9797
 0.96000    1.83     1.83   0.13072  -17.9787
 0.98000    1.83     1.83   0.13100  -17.9797
 1.00000    1.83     1.83   0.13074  -17.9784
 1.02000    1.83     1.83   0.13082  -17.9793
 1.04000    1.83     1.83   0.13042  -17.9789
 1.06000    1.83     1.83   0.13095  -17.9784
 1.08000    1.83     1.83   0.13057  -17.9758
 1.10000    1.83     1.83   0.13050  -17.9758
 1.12000    1.83     1.83   0.13025  -17.9774
 1.14000    1.83     1.83   0.13053  -17.9779
 1.16000    1.83     1.83   0.13057  -17.9769
 1.18000    1.83     1.83   0.13059  -17.9772
 1.20000    1.83     1.83   0.13040  -17.9764
 1.22000    1.83     1.83   0.13050  -17.9782
 1.24000    1.83     1.83   0.13055  -17.9774
 1.26000    1.83     1.83   0.13072  -17.9780
 1.28000    1.83     1.83   0.13046  -17.9768
 1.30000    1.83     1.83   0.13059  -17.9768
 1.32000    1.83     1.83   0.13067  -17.9774
 1.34000    1.83     1.83   0.13074  -17.9774
 1.36000    1.83     1.83   0.13068  -17.9768
 1.38000    1.83     1.83   0.13042  -17.9763
 1.40000    1.83     1.83   0.13044  -17.9767
 1.42000    1.83     1.83   0.13031  -17.9766
 1.44000    1.83     1.83   0.13044  -17.9764
 1.46000    1.83     1.83   0.13048  -17.9757
 1.48000    1.83     1.83   0.13037  -17.9761
 1.50000    1.83     1.83   0.13040  -17.9765
 1.52000    1.83     1.83   0.13024  -17.9752
 1.54000    1.83     1.83   0.13027  -17.9735
 1.56000    1.83     1.83   0.13024  -17.9743
 1.58000    1.83     1.83   0.13061  -17.9754
 1.60000    1.83     1.83   0.13037  -17.9751
 1.62000    1.83     1.83   0.13033  -17.9743
 1.64000    1.83     1.83   0.13025  -17.9746
 1.66000    1.83     1.83   0.13027  -17.9752
 1.68000    1.83     1.83   0.13048  -17.9763
 1.70000    1.83     1.83   0.13016  -17.9759
 1.72000    1.83     1.83   0.13012  -17.9748
 1.74000    1.83     1.83   0.13029  -17.9756
 1.76000    1.83     1.83   0.13035  -17.9757
 1.78000    1.83     1.83   0.13005  -17.9749
 1.80000    1.83     1.83   0.13016  -17.9753
 1.82000    1.83     1.83   0.13046  -17.9752
 1.84000    1.83     1.83   0.13024  -17.9755
 1.86000    1.83     1.83   0.13005  -17.9753
 1.88000    1.83     1.83   0.13024  -17.9762
 1.90000    1.83     1.83   0.13018  -17.9752
 1.92000    1.83     1.83   0.13010  -17.9758
 1.94000    1.83     1.83   0.13007  -17.9762
 1.96000    1.83     1.83   0.13009  -17.9765
 1.98000    1.83     1.83   0.13005  -17.9761
 2.00000    1.83     1.83   0.13001  -17.9751
 2.00000    1.83     1.83   0.12997  -17.9749
 1.98000    1.83     1.83   0.13005  -17.9759
 1.96000    1.83     1.83   0.13029  -17.9753
 1.94000    1.83     1.83   0.13037  -17.9768
 1.92000    1.83     1.83   0.13020  -17.9765
 1.90000    1.83     1.83   0.13005  -17.9770
 1.88000    1.83     1.83   0.13014  -17.9754
 1.86000    1.83     1.83   0.13003  -17.9762
 1.84000    1.83     1.83   0.13010  -17.9757
 1.82000    1.83     1.83   0.13016  -17.9762
 1.80000    1.83     1.83   0.13031  -17.9764
 1.78000    1.83     1.83   0.13025  -17.9764
 1.76000    1.83     1.83   0.13040  -17.9771
 1.74000    1.83     1.83   0.13020  -17.9768
 1.72000    1.83     1.83   0.12999  -17.9754
 1.70000    1.83     1.83   0.13009  -17.9766
 1.68000    1.83     1.83   0.13018  -17.9774
 1.66000    1.83     1.83   0.13025  -17.9772
 1.64000    1.83     1.83   0.13035  -17.9772
 1.62000    1.83     1.83   0.13037  -17.9775
 1.60000    1.83     1.83   0.13027  -17.9771
 1.58000    1.83     1.83   0.13031  -17.9774
 1.56000    1.83     1.83   0.13022  -17.9759
 1.54000    1.83     1.83   0.13038  -17.9771
 1.52000    1.83     1.83   0.13033  -17.9769
 1.50000    1.83     1.83   0.13044  -17.9774
 1.48000    1.83     1.83   0.13042  -17.9780
 1.46000    1.83     1.83   0.13044  -17.9774
 1.44000    1.83     1.83   0.13050  -17.9774
 1.42000    1.83     1.83   0.13057  -17.9771
 1.40000    1.83     1.83   0.13059  -17.9784
 1.38000    1.83     1.83   0.13044  -17.9779
 1.36000    1.83     1.83   0.13048  -17.9783
 1.34000    1.83     1.83   0.13029  -17.9781
 1.32000    1.83     1.83   0.13007  -17.9775
 1.30000    1.83     1.83   0.13018  -17.9778
 1.28000    1.83     1.83   0.13022  -17.9779
 1.26000    1.83     1.83   0.13016  -17.9785
 1.24000    1.83     1.83   0.13052  -17.9786
 1.22000    1.83     1.83   0.13042  -17.9781
 1.20000    1.83     1.83   0.13022  -17.9789
 1.18000    1.83     1.83   0.13042  -17.9785
 1.16000    1.83     1.83   0.13022  -17.9780
 1.14000    1.83     1.83   0.13048  -17.9774
 1.12000    1.83     1.83   0.13040  -17.9790
 1.10000    1.83     1.83   0.13048  -17.9790
 1.08000    1.83     1.83   0.13042  -17.9790
 1.06000    1.83     1.83   0.13057  -17.9792
 1.04000    1.83     1.83   0.13068  -17.9795
 1.02000    1.83     1.83   0.13061  -17.9801
 1.00000    1.83     1.83   0.13042  -17.9805
 0.98000    1.83     1.83   0.13055  -17.9803
 0.96000    1.83     1.83   0.13076  -17.9808
 0.94000    1.83     1.83   0.13097  -17.9810
 0.92000    1.83     1.83   0.13063  -17.9808
 0.90000    1.83     1.83   0.13063  -17.9813
 0.88000    1.83     1.83   0.13074  -17.9819
 0.86000    1.83     1.83   0.13098  -17.9816
 0.84000    1.83     1.83   0.13078  -17.9819
 0.82000    1.83     1.83   0.13082  -17.9824
 0.80000    1.83     1.83   0.13070  -17.9827
 0.78000    1.83     1.83   0.13097  -17.9827
 0.76000    1.83     1.83   0.13110  -17.9832
 0.74000    1.83     1.83   0.13125  -17.9848
 0.72000    1.83     1.83   0.13111  -17.9840
 0.70000    1.83     1.83   0.13111  -17.9849
 0.68000    1.83     1.83   0.13149  -17.9863
 0.66000    1.83     1.83   0.13140  -17.9867
 0.64000    1.83     1.83   0.13125  -17.9872
 0.62000    1.83     1.83   0.13158  -17.9885
 0.60000    1.83     1.83   0.13156  -17.9893
 0.58000    1.83     1.83   0.13153  -17.9906
 0.56000    1.83     1.83   0.13140  -17.9926
 0.54000    1.83     1.83   0.13173  -17.9950
 0.52000    1.83     1.83   0.13140  -17.9960
 0.50000    1.83     1.83   0.13143  -17.9981
 0.48000    1.83     1.83   0.13134  -18.0005
 0.46000    1.83     1.83   0.13145  -18.0026
 0.44000    1.83     1.83   0.13100  -18.0059
 0.42000    1.83     1.83   0.13119  -18.0097
 0.40000    1.83     1.83   0.13104  -18.0125
 0.38000    1.83     1.83   0.13091  -18.0151
 0.36000    1.83     1.83   0.13063  -18.0166
 0.34000    1.83     1.83   0.12994  -18.0192
 0.32000    1.83     1.83   0.12997  -18.0220
 0.30000    1.83     1.83   0.12952  -18.0242
 0.28000    1.83     1.83   0.12949  -18.0259
 0.26000    1.83     1.83   0.12894  -18.0288
 0.24000    1.83     1.83   0.12848  -18.0303
 0.22000    1.83     1.83   0.12823  -18.0316
 0.20000    1.83     1.83   0.12804  -18.0334
 0.18000    1.83     1.83   0.12741  -18.0367
 0.16000    1.83     1.83   0.12658  -18.0361
 0.14000    1.83     1.83   0.12640  -18.0367
 0.12000    1.83     1.83   0.12612  -18.0411
 0.10000    1.83     1.83   0.12531  -18.0399
 0.08000    1.83     1.83   0.12499  -18.0381
 0.06000    1.83     1.83   0.12451  -18.0416
 0.04000    1.83     1.83   0.12335  -18.0447
 0.02000    1.83     1.83   0.12295  -18.0384
 -0.00000    1.83     1.83   0.12308  -18.0357
