 Field[T] Tsmpl[K] Tcntr[K] Signal   Mirror[MM]
 0.00000    1.84     1.84   0.06573  -18.6556
 0.02000    1.84     1.84   0.06581  -18.6566
 0.04000    1.84     1.84   0.06577  -18.6574
 0.06000    1.84     1.84   0.06567  -18.6590
 0.08000    1.84     1.84   0.06564  -18.6627
 0.10000    1.84     1.84   0.06594  -18.6637
 0.12000    1.84     1.84   0.06593  -18.6633
 0.14000    1.84     1.84   0.06591  -18.6653
 0.16000    1.84     1.84   0.06606  -18.6675
 0.18000    1.84     1.84   0.06625  -18.6673
 0.20000    1.84     1.84   0.06609  -18.6671
 0.22000    1.84     1.84   0.06627  -18.6684
 0.24000    1.84     1.84   0.06634  -18.6689
 0.26000    1.84     1.84   0.06645  -18.6697
 0.28000    1.84     1.84   0.06667  -18.6707
 0.30000    1.84     1.84   0.06674  -18.6716
 0.32000    1.84     1.84   0.06679  -18.6716
 0.34000    1.84     1.84   0.06685  -18.6721
 0.36000    1.84     1.84   0.06688  -18.6722
 0.38000    1.84     1.84   0.06697  -18.6718
 0.40000    1.84     1.84   0.06698  -18.6718
 0.42000    1.84     1.84   0.06711  -18.6721
 0.44000    1.84     1.84   0.06713  -18.6714
 0.46000    1.84     1.84   0.06740  -18.6714
 0.48000    1.84     1.84   0.06749  -18.6709
 0.50000    1.84     1.84   0.06747  -18.6699
 0.52000    1.84     1.84   0.06763  -18.6694
 0.54000    1.84     1.84   0.06770  -18.6684
 0.56000    1.84     1.84   0.06758  -18.6670
 0.58000    1.84     1.84   0.06771  -18.6661
 0.60000    1.84     1.84   0.06777  -18.6655
 0.62000    1.84     1.84   0.06782  -18.6646
 0.64000    1.84     1.84   0.06784  -18.6632
 0.66000    1.84     1.84   0.06786  -18.6631
 0.68000    1.84     1.84   0.06786  -18.6620
 0.70000    1.84     1.84   0.06798  -18.6621
 0.72000    1.84     1.84   0.06801  -18.6607
 0.74000    1.84     1.84   0.06798  -18.6601
 0.76000    1.84     1.84   0.06793  -18.6593
 0.78000    1.84     1.84   0.06804  -18.6596
 0.80000    1.84     1.84   0.06800  -18.6591
 0.82000    1.84     1.84   0.06812  -18.6592
 0.84000    1.84     1.84   0.06803  -18.6589
 0.86000    1.84     1.84   0.06800  -18.6596
 0.88000    1.84     1.84   0.06806  -18.6592
 0.90000    1.84     1.84   0.06802  -18.6575
 0.92000    1.84     1.84   0.06806  -18.6568
 0.94000    1.84     1.84   0.06800  -18.6566
 0.96000    1.84     1.84   0.06805  -18.6560
 0.98000    1.84     1.84   0.06798  -18.6555
 1.00000    1.84     1.84   0.06801  -18.6559
 1.02000    1.84     1.84   0.06803  -18.6556
 1.04000    1.84     1.84   0.06796  -18.6553
 1.06000    1.84     1.84   0.06810  -18.6543
 1.08000    1.84     1.84   0.06807  -18.6544
 1.10000    1.84     1.84   0.06803  -18.6540
 1.12000    1.84     1.84   0.06809  -18.6540
 1.14000    1.84     1.84   0.06807  -18.6533
 1.16000    1.84     1.84   0.06811  -18.6525
 1.18000    1.84     1.84   0.06802  -18.6528
 1.20000    1.84     1.84   0.06806  -18.6525
 1.22000    1.84     1.84   0.06805  -18.6520
 1.24000    1.84     1.84   0.06801  -18.6520
 1.26000    1.84     1.84   0.06802  -18.6511
 1.28000    1.84     1.84   0.06811  -18.6515
 1.30000    1.84     1.84   0.06805  -18.6508
 1.32000    1.84     1.84   0.06818  -18.6506
 1.34000    1.84     1.84   0.06814  -18.6512
 1.36000    1.84     1.84   0.06804  -18.6501
 1.38000    1.84     1.84   0.06805  -18.6506
 1.40000    1.84     1.84   0.06810  -18.6511
 1.42000    1.84     1.84   0.06801  -18.6503
 1.44000    1.84     1.84   0.06799  -18.6503
 1.46000    1.84     1.84   0.06805  -18.6503
 1.48000    1.84     1.84   0.06811  -18.6501
 1.50000    1.84     1.84   0.06796  -18.6494
 1.52000    1.84     1.84   0.06794  -18.6491
 1.54000    1.84     1.84   0.06791  -18.6496
 1.56000    1.84     1.84   0.06793  -18.6493
 1.58000    1.84     1.84   0.06789  -18.6492
 1.60000    1.84     1.84   0.06797  -18.6492
 1.62000    1.84     1.84   0.06798  -18.6487
 1.64000    1.84     1.84   0.06784  -18.6480
 1.66000    1.84     1.84   0.06796  -18.6486
 1.68000    1.84     1.84   0.06788  -18.6488
 1.70000    1.84     1.84   0.06786  -18.6481
 1.72000    1.84     1.84   0.06792  -18.6491
 1.74000    1.84     1.84   0.06777  -18.6485
 1.76000    1.84     1.84   0.06791  -18.6478
 1.78000    1.84     1.84   0.06793  -18.6486
 1.80000    1.84     1.84   0.06796  -18.6484
 1.82000    1.84     1.84   0.06786  -18.6480
 1.84000    1.84     1.84   0.06779  -18.6480
 1.86000    1.84     1.84   0.06780  -18.6479
 1.88000    1.84     1.84   0.06781  -18.6474
 1.90000    1.84     1.84   0.06782  -18.6462
 1.92000    1.84     1.84   0.06802  -18.6477
 1.94000    1.84     1.84   0.06789  -18.6484
 1.96000    1.84     1.84   0.06780  -18.6475
 1.98000    1.84     1.84   0.06765  -18.6467
 2.00000    1.84     1.84   0.06765  -18.6468
 2.00000    1.84     1.84   0.06773  -18.6482
 1.98000    1.84     1.84   0.06784  -18.6475
 1.96000    1.84     1.84   0.06762  -18.6474
 1.94000    1.84     1.84   0.06782  -18.6483
 1.92000    1.84     1.84   0.06779  -18.6485
 1.90000    1.84     1.84   0.06780  -18.6482
 1.88000    1.84     1.84   0.06782  -18.6485
 1.86000    1.84     1.84   0.06770  -18.6489
 1.84000    1.84     1.84   0.06786  -18.6485
 1.82000    1.84     1.84   0.06780  -18.6492
 1.80000    1.84     1.84   0.06791  -18.6485
 1.78000    1.84     1.84   0.06793  -18.6499
 1.76000    1.84     1.84   0.06779  -18.6487
 1.74000    1.84     1.84   0.06794  -18.6495
 1.72000    1.84     1.84   0.06791  -18.6490
 1.70000    1.84     1.84   0.06779  -18.6487
 1.68000    1.84     1.84   0.06782  -18.6492
 1.66000    1.84     1.84   0.06795  -18.6494
 1.64000    1.84     1.84   0.06794  -18.6498
 1.62000    1.84     1.84   0.06794  -18.6499
 1.60000    1.84     1.84   0.06793  -18.6497
 1.58000    1.84     1.84   0.06809  -18.6499
 1.56000    1.84     1.84   0.06807  -18.6504
 1.54000    1.84     1.84   0.06801  -18.6507
 1.52000    1.84     1.84   0.06802  -18.6506
 1.50000    1.84     1.84   0.06802  -18.6510
 1.48000    1.84     1.84   0.06814  -18.6511
 1.46000    1.84     1.84   0.06807  -18.6508
 1.44000    1.84     1.84   0.06802  -18.6513
 1.42000    1.84     1.84   0.06802  -18.6510
 1.40000    1.84     1.84   0.06803  -18.6513
 1.38000    1.84     1.84   0.06802  -18.6514
 1.36000    1.84     1.84   0.06816  -18.6521
 1.34000    1.84     1.84   0.06802  -18.6519
 1.32000    1.84     1.84   0.06804  -18.6513
 1.30000    1.84     1.84   0.06812  -18.6524
 1.28000    1.84     1.84   0.06807  -18.6513
 1.26000    1.84     1.84   0.06809  -18.6525
 1.24000    1.84     1.84   0.06807  -18.6520
 1.22000    1.84     1.84   0.06803  -18.6520
 1.20000    1.84     1.84   0.06820  -18.6527
 1.18000    1.84     1.84   0.06808  -18.6518
 1.16000    1.84     1.84   0.06809  -18.6522
 1.14000    1.84     1.84   0.06804  -18.6527
 1.12000    1.84     1.84   0.06805  -18.6534
 1.10000    1.84     1.84   0.06800  -18.6531
 1.08000    1.84     1.84   0.06800  -18.6541
 1.06000    1.84     1.84   0.06810  -18.6539
 1.04000    1.84     1.84   0.06818  -18.6541
 1.02000    1.84     1.84   0.06806  -18.6541
 1.00000    1.84     1.84   0.06800  -18.6547
 0.98000    1.84     1.84   0.06810  -18.6558
 0.96000    1.84     1.84   0.06807  -18.6549
 0.94000    1.84     1.84   0.06802  -18.6551
 0.92000    1.84     1.84   0.06794  -18.6556
 0.90000    1.84     1.84   0.06798  -18.6561
 0.88000    1.84     1.84   0.06799  -18.6567
 0.86000    1.84     1.84   0.06811  -18.6574
 0.84000    1.84     1.84   0.06802  -18.6580
 0.82000    1.84     1.84   0.06813  -18.6573
 0.80000    1.84     1.84   0.06800  -18.6581
 0.78000    1.84     1.84   0.06795  -18.6585
 0.76000    1.84     1.84   0.06808  -18.6596
 0.74000    1.84     1.84   0.06811  -18.6596
 0.72000    1.84     1.84   0.06809  -18.6606
 0.70000    1.84     1.84   0.06812  -18.6610
 0.68000    1.84     1.84   0.06809  -18.6616
 0.66000    1.84     1.84   0.06816  -18.6617
 0.64000    1.84     1.84   0.06813  -18.6630
 0.62000    1.84     1.84   0.06795  -18.6640
 0.60000    1.84     1.84   0.06813  -18.6659
 0.58000    1.84     1.84   0.06802  -18.6661
 0.56000    1.84     1.84   0.06798  -18.6675
 0.54000    1.84     1.84   0.06793  -18.6684
 0.52000    1.84     1.84   0.06793  -18.6699
 0.50000    1.84     1.84   0.06780  -18.6707
 0.48000    1.84     1.84   0.06766  -18.6713
 0.46000    1.84     1.84   0.06759  -18.6710
 0.44000    1.84     1.84   0.06757  -18.6720
 0.42000    1.84     1.84   0.06740  -18.6723
 0.40000    1.84     1.84   0.06736  -18.6718
 0.38000    1.84     1.84   0.06724  -18.6717
 0.36000    1.84     1.84   0.06717  -18.6717
 0.34000    1.84     1.84   0.06714  -18.6718
 0.32000    1.84     1.84   0.06688  -18.6709
 0.30000    1.84     1.84   0.06690  -18.6712
 0.28000    1.84     1.84   0.06676  -18.6703
 0.26000    1.84     1.84   0.06672  -18.6695
 0.24000    1.84     1.84   0.06662  -18.6691
 0.22000    1.84     1.84   0.06644  -18.6677
 0.20000    1.84     1.84   0.06627  -18.6651
 0.18000    1.84     1.84   0.06646  -18.6648
 0.16000    1.84     1.84   0.06623  -18.6650
 0.14000    1.84     1.84   0.06612  -18.6623
 0.12000    1.84     1.84   0.06605  -18.6614
 0.10000    1.84     1.84   0.06593  -18.6597
 0.08000    1.84     1.84   0.06584  -18.6600
 0.06000    1.84     1.84   0.06587  -18.6569
 0.04000    1.84     1.84   0.06581  -18.6547
 0.02000    1.84     1.84   0.06586  -18.6539
 -0.00000    1.84     1.84   0.06594  -18.6538
