 Field[T] Tsmpl[K] Tcntr[K] Signal   Mirror[MM]
 0.00000    1.83     1.83   0.45548  -18.3246
 0.02000    1.83     1.83   0.45195  -18.3228
 0.04000    1.83     1.83   0.45430  -18.3244
 0.06000    1.83     1.83   0.45129  -18.3253
 0.08000    1.83     1.83   0.44861  -18.3281
 0.10000    1.83     1.83   0.44508  -18.3296
 0.12000    1.83     1.83   0.44023  -18.3344
 0.14000    1.83     1.83   0.43320  -18.3374
 0.16000    1.83     1.83   0.43167  -18.3453
 0.18000    1.83     1.83   0.43639  -18.3537
 0.20000    1.83     1.83   0.45095  -18.3618
 0.22000    1.83     1.83   0.46183  -18.3636
 0.24000    1.83     1.83   0.46736  -18.3670
 0.26000    1.83     1.83   0.47539  -18.3711
 0.28000    1.83     1.83   0.49048  -18.3735
 0.30000    1.83     1.83   0.49551  -18.3749
 0.32000    1.83     1.83   0.50404  -18.3778
 0.34000    1.83     1.83   0.51726  -18.3808
 0.36000    1.83     1.83   0.52632  -18.3818
 0.38000    1.83     1.83   0.53469  -18.3822
 0.40000    1.83     1.83   0.54257  -18.3831
 0.42000    1.83     1.83   0.55363  -18.3822
 0.44000    1.83     1.83   0.56735  -18.3838
 0.46000    1.83     1.83   0.57253  -18.3835
 0.48000    1.83     1.83   0.58175  -18.3836
 0.50000    1.83     1.83   0.59231  -18.3823
 0.52000    1.83     1.83   0.60050  -18.3821
 0.54000    1.83     1.83   0.61190  -18.3813
 0.56000    1.83     1.83   0.61909  -18.3800
 0.58000    1.83     1.83   0.62547  -18.3764
 0.60000    1.83     1.83   0.63115  -18.3741
 0.62000    1.83     1.83   0.63618  -18.3733
 0.64000    1.83     1.83   0.64237  -18.3702
 0.66000    1.83     1.83   0.64624  -18.3684
 0.68000    1.83     1.83   0.64975  -18.3662
 0.70000    1.83     1.83   0.65093  -18.3638
 0.72000    1.83     1.83   0.65493  -18.3619
 0.74000    1.83     1.83   0.65478  -18.3604
 0.76000    1.83     1.83   0.65612  -18.3587
 0.78000    1.83     1.83   0.65678  -18.3565
 0.80000    1.83     1.83   0.65778  -18.3556
 0.82000    1.83     1.83   0.65512  -18.3540
 0.84000    1.83     1.83   0.65762  -18.3532
 0.86000    1.83     1.83   0.65493  -18.3515
 0.88000    1.83     1.83   0.66046  -18.3504
 0.90000    1.83     1.83   0.65662  -18.3489
 0.92000    1.83     1.83   0.65628  -18.3490
 0.94000    1.83     1.83   0.65628  -18.3481
 0.96000    1.83     1.83   0.65696  -18.3481
 0.98000    1.83     1.83   0.65359  -18.3467
 1.00000    1.83     1.83   0.65562  -18.3460
 1.02000    1.83     1.83   0.65712  -18.3462
 1.04000    1.83     1.83   0.65512  -18.3454
 1.06000    1.83     1.83   0.65528  -18.3447
 1.08000    1.83     1.83   0.65528  -18.3451
 1.10000    1.83     1.83   0.65528  -18.3449
 1.12000    1.83     1.83   0.65512  -18.3444
 1.14000    1.83     1.83   0.65043  -18.3436
 1.16000    1.83     1.83   0.65343  -18.3437
 1.18000    1.83     1.83   0.65259  -18.3431
 1.20000    1.83     1.83   0.65462  -18.3429
 1.22000    1.83     1.83   0.65227  -18.3421
 1.24000    1.83     1.83   0.65209  -18.3407
 1.26000    1.83     1.83   0.65428  -18.3414
 1.28000    1.83     1.83   0.65309  -18.3405
 1.30000    1.83     1.83   0.65025  -18.3391
 1.32000    1.83     1.83   0.65359  -18.3400
 1.34000    1.83     1.83   0.65493  -18.3413
 1.36000    1.83     1.83   0.65327  -18.3405
 1.38000    1.83     1.83   0.65309  -18.3401
 1.40000    1.83     1.83   0.65343  -18.3400
 1.42000    1.83     1.83   0.65327  -18.3391
 1.44000    1.83     1.83   0.65393  -18.3389
 1.46000    1.83     1.83   0.65259  -18.3385
 1.48000    1.83     1.83   0.65378  -18.3389
 1.50000    1.83     1.83   0.65359  -18.3383
 1.52000    1.83     1.83   0.65227  -18.3386
 1.54000    1.83     1.83   0.65143  -18.3373
 1.56000    1.83     1.83   0.65259  -18.3379
 1.58000    1.83     1.83   0.65209  -18.3374
 1.60000    1.83     1.83   0.65378  -18.3383
 1.62000    1.83     1.83   0.65428  -18.3379
 1.64000    1.83     1.83   0.65277  -18.3375
 1.66000    1.83     1.83   0.64975  -18.3366
 1.68000    1.83     1.83   0.65043  -18.3362
 1.70000    1.83     1.83   0.65193  -18.3365
 1.72000    1.83     1.83   0.65227  -18.3368
 1.74000    1.83     1.83   0.65009  -18.3364
 1.76000    1.83     1.83   0.65109  -18.3372
 1.78000    1.83     1.83   0.65143  -18.3373
 1.80000    1.83     1.83   0.65209  -18.3369
 1.82000    1.83     1.83   0.65259  -18.3374
 1.84000    1.83     1.83   0.64993  -18.3370
 1.86000    1.83     1.83   0.65093  -18.3362
 1.88000    1.83     1.83   0.65193  -18.3362
 1.90000    1.83     1.83   0.64959  -18.3358
 1.92000    1.83     1.83   0.64840  -18.3343
 1.94000    1.83     1.83   0.65009  -18.3350
 1.96000    1.83     1.83   0.65059  -18.3362
 1.98000    1.83     1.83   0.65125  -18.3361
 2.00000    1.83     1.83   0.64825  -18.3360
 2.00000    1.83     1.83   0.65159  -18.3359
 1.98000    1.83     1.83   0.64540  -18.3350
 1.96000    1.83     1.83   0.64959  -18.3360
 1.94000    1.83     1.83   0.64740  -18.3347
 1.92000    1.83     1.83   0.65209  -18.3357
 1.90000    1.83     1.83   0.65009  -18.3360
 1.88000    1.83     1.83   0.64959  -18.3350
 1.86000    1.83     1.83   0.65075  -18.3364
 1.84000    1.83     1.83   0.65059  -18.3363
 1.82000    1.83     1.83   0.65243  -18.3364
 1.80000    1.83     1.83   0.64993  -18.3372
 1.78000    1.83     1.83   0.64959  -18.3363
 1.76000    1.83     1.83   0.64656  -18.3357
 1.74000    1.83     1.83   0.64940  -18.3361
 1.72000    1.83     1.83   0.64606  -18.3357
 1.70000    1.83     1.83   0.64940  -18.3367
 1.68000    1.83     1.83   0.64940  -18.3361
 1.66000    1.83     1.83   0.64790  -18.3369
 1.64000    1.83     1.83   0.64790  -18.3356
 1.62000    1.83     1.83   0.65359  -18.3374
 1.60000    1.83     1.83   0.65143  -18.3369
 1.58000    1.83     1.83   0.64925  -18.3365
 1.56000    1.83     1.83   0.64890  -18.3368
 1.54000    1.83     1.83   0.65125  -18.3380
 1.52000    1.83     1.83   0.65227  -18.3377
 1.50000    1.83     1.83   0.64940  -18.3377
 1.48000    1.83     1.83   0.64993  -18.3363
 1.46000    1.83     1.83   0.64909  -18.3367
 1.44000    1.83     1.83   0.64674  -18.3372
 1.42000    1.83     1.83   0.65009  -18.3383
 1.40000    1.83     1.83   0.64975  -18.3381
 1.38000    1.83     1.83   0.64909  -18.3378
 1.36000    1.83     1.83   0.65109  -18.3396
 1.34000    1.83     1.83   0.64993  -18.3404
 1.32000    1.83     1.83   0.64993  -18.3405
 1.30000    1.83     1.83   0.64959  -18.3398
 1.28000    1.83     1.83   0.64993  -18.3400
 1.26000    1.83     1.83   0.65159  -18.3404
 1.24000    1.83     1.83   0.64774  -18.3403
 1.22000    1.83     1.83   0.64925  -18.3401
 1.20000    1.83     1.83   0.64975  -18.3405
 1.18000    1.83     1.83   0.64840  -18.3404
 1.16000    1.83     1.83   0.64724  -18.3404
 1.14000    1.83     1.83   0.64706  -18.3419
 1.12000    1.83     1.83   0.64706  -18.3410
 1.10000    1.83     1.83   0.64774  -18.3415
 1.08000    1.83     1.83   0.64993  -18.3419
 1.06000    1.83     1.83   0.65093  -18.3425
 1.04000    1.83     1.83   0.64624  -18.3420
 1.02000    1.83     1.83   0.64875  -18.3440
 1.00000    1.83     1.83   0.65009  -18.3461
 0.98000    1.83     1.83   0.64774  -18.3457
 0.96000    1.83     1.83   0.64825  -18.3455
 0.94000    1.83     1.83   0.64840  -18.3458
 0.92000    1.83     1.83   0.65125  -18.3466
 0.90000    1.83     1.83   0.64959  -18.3474
 0.88000    1.83     1.83   0.65227  -18.3493
 0.86000    1.83     1.83   0.64440  -18.3487
 0.84000    1.83     1.83   0.65175  -18.3506
 0.82000    1.83     1.83   0.64859  -18.3513
 0.80000    1.83     1.83   0.64993  -18.3531
 0.78000    1.83     1.83   0.64859  -18.3542
 0.76000    1.83     1.83   0.65025  -18.3560
 0.74000    1.83     1.83   0.65025  -18.3575
 0.72000    1.83     1.83   0.64740  -18.3596
 0.70000    1.83     1.83   0.64390  -18.3612
 0.68000    1.83     1.83   0.64306  -18.3638
 0.66000    1.83     1.83   0.63803  -18.3665
 0.64000    1.83     1.83   0.63634  -18.3685
 0.62000    1.83     1.83   0.62865  -18.3693
 0.60000    1.83     1.83   0.62915  -18.3728
 0.58000    1.83     1.83   0.61591  -18.3725
 0.56000    1.83     1.83   0.61341  -18.3758
 0.54000    1.83     1.83   0.60653  -18.3782
 0.52000    1.83     1.83   0.59600  -18.3791
 0.50000    1.83     1.83   0.58678  -18.3804
 0.48000    1.83     1.83   0.57638  -18.3806
 0.46000    1.83     1.83   0.56700  -18.3820
 0.44000    1.83     1.83   0.55444  -18.3820
 0.42000    1.83     1.83   0.55110  -18.3832
 0.40000    1.83     1.83   0.53870  -18.3826
 0.38000    1.83     1.83   0.53101  -18.3810
 0.36000    1.83     1.83   0.51895  -18.3801
 0.34000    1.83     1.83   0.51257  -18.3793
 0.32000    1.83     1.83   0.50085  -18.3773
 0.30000    1.83     1.83   0.49182  -18.3749
 0.28000    1.83     1.83   0.48345  -18.3735
 0.26000    1.83     1.83   0.47223  -18.3727
 0.24000    1.83     1.83   0.46133  -18.3681
 0.22000    1.83     1.83   0.45395  -18.3631
 0.20000    1.83     1.83   0.44424  -18.3613
 0.18000    1.83     1.83   0.43002  -18.3559
 0.16000    1.83     1.83   0.42483  -18.3459
 0.14000    1.83     1.83   0.42564  -18.3389
 0.12000    1.83     1.83   0.43002  -18.3332
 0.10000    1.83     1.83   0.43320  -18.3293
 0.08000    1.83     1.83   0.43855  -18.3267
 0.06000    1.83     1.83   0.44392  -18.3261
 0.04000    1.83     1.83   0.44492  -18.3246
 0.02000    1.83     1.83   0.44424  -18.3221
 -0.00000    1.83     1.83   0.44742  -18.3235
