 Field[T] Tsmpl[K] Tcntr[K] Signal
 0.00000    1.81     1.84   7.51630
 0.05000    1.81     1.84   7.52630
 0.10000    1.81     1.84   7.52310
 0.15000    1.81     1.84   7.52570
 0.20000    1.81     1.84   7.52550
 0.25000    1.81     1.84   7.52890
 0.30000    1.81     1.84   7.53160
 0.35000    1.81     1.84   7.53000
 0.40000    1.81     1.84   7.52620
 0.45000    1.81     1.84   7.53560
 0.50000    1.81     1.84   7.53040
 0.55000    1.81     1.84   7.52960
 0.60000    1.81     1.84   7.53120
 0.65000    1.81     1.84   7.52960
 0.70000    1.81     1.84   7.52420
 0.75000    1.81     1.84   7.52410
 0.80000    1.81     1.84   7.52340
 0.85000    1.81     1.84   7.51960
 0.90000    1.81     1.84   7.51860
 0.95000    1.81     1.84   7.51540
 1.00000    1.81     1.84   7.51300
 1.05000    1.81     1.84   7.50830
 1.10000    1.81     1.84   7.50640
 1.15000    1.81     1.84   7.50490
 1.20000    1.81     1.84   7.50760
 1.25000    1.81     1.84   7.49760
 1.30000    1.81     1.84   7.48850
 1.35000    1.81     1.84   7.48700
 1.40000    1.81     1.84   7.48160
 1.45000    1.81     1.84   7.46270
 1.50000    1.81     1.84   7.45240
 1.55000    1.81     1.84   7.44670
 1.60000    1.82     1.84   7.44720
 1.65000    1.82     1.84   7.44920
 1.70000    1.82     1.84   7.44770
 1.75000    1.82     1.84   7.44990
 1.80000    1.82     1.84   7.45410
 1.85000    1.82     1.84   7.44960
 1.90000    1.82     1.84   7.45270
 1.95000    1.82     1.84   7.45530
 2.00000    1.82     1.84   7.45500
 2.05000    1.82     1.84   7.45460
 2.10000    1.82     1.84   7.45780
 2.15000    1.82     1.84   7.46050
 2.20000    1.82     1.84   7.45250
 2.25000    1.82     1.84   7.44400
 2.30000    1.82     1.84   7.43780
 2.35000    1.82     1.84   7.43390
 2.40000    1.82     1.84   7.43370
 2.45000    1.83     1.84   7.43410
 2.50000    1.83     1.85   7.44400
 2.55000    1.83     1.85   7.45010
 2.60000    1.83     1.85   7.46590
 2.65000    1.83     1.85   7.47420
 2.70000    1.83     1.85   7.49110
 2.75000    1.83     1.85   7.49550
 2.80000    1.83     1.85   7.51570
 2.85000    1.83     1.85   7.52100
 2.90000    1.83     1.85   7.53230
 2.95000    1.83     1.85   7.54270
 3.00000    1.83     1.85   7.54750
 3.05000    1.83     1.85   7.54970
 3.10000    1.83     1.85   7.55580
 3.15000    1.83     1.85   7.55670
 3.20000    1.83     1.85   7.56660
 3.25000    1.83     1.85   7.56900
 3.30000    1.83     1.85   7.56680
 3.35000    1.83     1.85   7.57480
 3.40000    1.83     1.85   7.57460
 3.45000    1.83     1.85   7.58030
 3.50000    1.84     1.85   7.58420
 3.55000    1.84     1.85   7.59060
 3.60000    1.84     1.85   7.59610
 3.65000    1.84     1.85   7.59750
 3.70000    1.84     1.85   7.59110
 3.75000    1.84     1.86   7.59020
 3.80000    1.84     1.86   7.59020
 3.85000    1.84     1.86   7.59300
 3.90000    1.84     1.86   7.59410
 3.95000    1.84     1.86   7.59350
 4.00000    1.84     1.86   7.59250
 4.00000    1.84     1.86   7.59390
 3.95000    1.84     1.86   7.59360
 3.90000    1.84     1.86   7.59470
 3.85000    1.84     1.86   7.58820
 3.80000    1.84     1.86   7.59140
 3.75000    1.84     1.86   7.59250
 3.70000    1.84     1.86   7.59100
 3.65000    1.84     1.86   7.59150
 3.60000    1.84     1.85   7.58870
 3.55000    1.83     1.85   7.58850
 3.50000    1.83     1.85   7.59040
 3.45000    1.83     1.85   7.59140
 3.40000    1.83     1.85   7.59690
 3.35000    1.83     1.85   7.58720
 3.30000    1.83     1.85   7.58560
 3.25000    1.83     1.85   7.58260
 3.20000    1.83     1.85   7.57560
 3.15000    1.83     1.85   7.57240
 3.10000    1.83     1.85   7.57200
 3.05000    1.83     1.85   7.56510
 3.00000    1.83     1.85   7.55980
 2.95000    1.83     1.85   7.55670
 2.90000    1.83     1.85   7.55000
 2.85000    1.83     1.85   7.54050
 2.80000    1.83     1.85   7.52850
 2.75000    1.83     1.84   7.51980
 2.70000    1.83     1.84   7.50660
 2.65000    1.82     1.84   7.49470
 2.60000    1.82     1.84   7.48190
 2.55000    1.82     1.84   7.47170
 2.50000    1.82     1.84   7.46720
 2.45000    1.82     1.84   7.46090
 2.40000    1.82     1.84   7.45930
 2.35000    1.82     1.84   7.46040
 2.30000    1.82     1.84   7.46220
 2.25000    1.82     1.84   7.46520
 2.20000    1.82     1.84   7.46720
 2.15000    1.82     1.84   7.46940
 2.10000    1.82     1.84   7.47590
 2.05000    1.82     1.84   7.48350
 2.00000    1.82     1.84   7.48400
 1.95000    1.82     1.84   7.48340
 1.90000    1.82     1.84   7.48100
 1.85000    1.82     1.84   7.48560
 1.80000    1.82     1.84   7.48040
 1.75000    1.81     1.84   7.48180
 1.70000    1.81     1.83   7.48020
 1.65000    1.81     1.83   7.48020
 1.60000    1.81     1.83   7.48090
 1.55000    1.81     1.83   7.47600
 1.50000    1.81     1.83   7.47610
 1.45000    1.81     1.83   7.48360
 1.40000    1.81     1.83   7.49370
 1.35000    1.81     1.83   7.50540
 1.30000    1.81     1.83   7.51500
 1.25000    1.81     1.83   7.52930
 1.20000    1.81     1.83   7.53010
 1.15000    1.81     1.83   7.54280
 1.10000    1.81     1.83   7.55410
 1.05000    1.81     1.83   7.55620
 1.00000    1.81     1.83   7.55970
 0.95000    1.81     1.83   7.56410
 0.90000    1.81     1.83   7.57010
 0.85000    1.81     1.83   7.57220
 0.80000    1.81     1.83   7.57690
 0.75000    1.81     1.83   7.57970
 0.70000    1.81     1.83   7.58750
 0.65000    1.81     1.83   7.58740
 0.60000    1.81     1.83   7.59310
 0.55000    1.81     1.83   7.59690
 0.50000    1.81     1.83   7.59720
 0.45000    1.81     1.83   7.60220
 0.40000    1.81     1.83   7.60290
 0.35000    1.81     1.83   7.60790
 0.30000    1.81     1.83   7.61080
 0.25000    1.81     1.83   7.61190
 0.20000    1.81     1.83   7.61400
 0.15000    1.81     1.83   7.61970
 0.10000    1.81     1.83   7.61800
 0.05000    1.81     1.83   7.61290
-0.00000    1.81     1.83   7.61730
 0.00000    1.81     1.83   7.61720
-0.05000    1.81     1.83   7.61780
-0.10000    1.81     1.83   7.61510
-0.15000    1.81     1.83   7.61570
-0.20000    1.81     1.83   7.61730
-0.25000    1.81     1.83   7.61460
-0.30000    1.81     1.83   7.61280
-0.35000    1.81     1.83   7.61630
-0.40000    1.81     1.83   7.61510
-0.45000    1.81     1.83   7.61440
-0.50000    1.81     1.83   7.61350
-0.55000    1.81     1.83   7.61270
-0.60000    1.81     1.83   7.60690
-0.65000    1.81     1.83   7.61160
-0.70000    1.81     1.83   7.61240
-0.75000    1.81     1.84   7.61000
-0.80000    1.81     1.84   7.60660
-0.85000    1.81     1.84   7.60760
-0.90000    1.81     1.84   7.60490
-0.95000    1.81     1.84   7.60080
-1.00000    1.81     1.84   7.59910
-1.05000    1.81     1.84   7.59500
-1.10000    1.81     1.84   7.58860
-1.15000    1.81     1.84   7.58700
-1.20000    1.81     1.84   7.58040
-1.25000    1.81     1.84   7.57570
-1.30000    1.81     1.84   7.56780
-1.35000    1.81     1.84   7.55770
-1.40000    1.82     1.84   7.55070
-1.45000    1.82     1.84   7.54180
-1.50000    1.82     1.84   7.53830
-1.55000    1.82     1.84   7.53580
-1.60000    1.82     1.84   7.54090
-1.65000    1.82     1.84   7.54440
-1.70000    1.82     1.84   7.54260
-1.75000    1.82     1.84   7.54670
-1.80000    1.82     1.84   7.54980
-1.85000    1.82     1.84   7.55490
-1.90000    1.82     1.84   7.54990
-1.95000    1.82     1.84   7.54940
-2.00000    1.82     1.85   7.54660
-2.05000    1.82     1.85   7.54030
-2.10000    1.83     1.85   7.54150
-2.15000    1.83     1.85   7.54140
-2.20000    1.83     1.85   7.53970
-2.25000    1.83     1.85   7.53630
-2.30000    1.83     1.85   7.53460
-2.35000    1.83     1.85   7.53780
-2.40000    1.83     1.85   7.53610
-2.45000    1.83     1.85   7.53950
-2.50000    1.83     1.85   7.54550
-2.55000    1.83     1.85   7.55730
-2.60000    1.83     1.85   7.56640
-2.65000    1.83     1.85   7.58110
-2.70000    1.83     1.85   7.59120
-2.75000    1.83     1.85   7.60710
-2.80000    1.83     1.85   7.61840
-2.85000    1.84     1.85   7.63180
-2.90000    1.84     1.86   7.64510
-2.95000    1.84     1.86   7.65180
-3.00000    1.84     1.86   7.65700
-3.05000    1.84     1.86   7.66350
-3.10000    1.84     1.86   7.66830
-3.15000    1.84     1.86   7.66560
-3.20000    1.84     1.86   7.67250
-3.25000    1.84     1.86   7.67830
-3.30000    1.84     1.86   7.67670
-3.35000    1.84     1.86   7.67730
-3.40000    1.84     1.86   7.68520
-3.45000    1.84     1.86   7.68380
-3.50000    1.84     1.86   7.69110
-3.55000    1.84     1.86   7.69260
-3.60000    1.84     1.86   7.69230
-3.65000    1.84     1.86   7.69440
-3.70000    1.84     1.86   7.69650
-3.75000    1.84     1.86   7.69920
-3.80000    1.84     1.86   7.70260
-3.85000    1.84     1.86   7.70250
-3.90000    1.84     1.86   7.70440
-3.95000    1.85     1.86   7.70960
-4.00000    1.85     1.87   7.70990
-4.00000    1.85     1.87   7.71370
-3.95000    1.85     1.87   7.71210
-3.90000    1.85     1.87   7.70830
-3.85000    1.85     1.87   7.71000
-3.80000    1.85     1.87   7.71060
-3.75000    1.85     1.87   7.70330
-3.70000    1.85     1.86   7.69570
-3.65000    1.85     1.86   7.69480
-3.60000    1.85     1.86   7.69310
-3.55000    1.84     1.86   7.69010
-3.50000    1.84     1.86   7.68740
-3.45000    1.84     1.86   7.68050
-3.40000    1.84     1.86   7.68210
-3.35000    1.84     1.86   7.67750
-3.30000    1.84     1.86   7.67760
-3.25000    1.84     1.86   7.66940
-3.20000    1.84     1.86   7.66670
-3.15000    1.84     1.86   7.66820
-3.10000    1.84     1.86   7.65870
-3.05000    1.84     1.86   7.65620
-3.00000    1.84     1.86   7.65160
-2.95000    1.84     1.86   7.64140
-2.90000    1.84     1.86   7.63200
-2.85000    1.84     1.86   7.61930
-2.80000    1.84     1.86   7.61450
-2.75000    1.83     1.85   7.60270
-2.70000    1.83     1.85   7.58870
-2.65000    1.83     1.85   7.57770
-2.60000    1.83     1.85   7.56450
-2.55000    1.83     1.85   7.54550
-2.50000    1.83     1.85   7.53460
-2.45000    1.83     1.85   7.53070
-2.40000    1.83     1.85   7.52460
-2.35000    1.83     1.85   7.52570
-2.30000    1.83     1.85   7.52130
-2.25000    1.83     1.85   7.52200
-2.20000    1.83     1.85   7.52270
-2.15000    1.83     1.85   7.52430
-2.10000    1.83     1.85   7.52810
-2.05000    1.83     1.85   7.52760
-2.00000    1.83     1.85   7.52820
-1.95000    1.83     1.85   7.53280
-1.90000    1.83     1.85   7.53090
-1.85000    1.83     1.85   7.53020
-1.80000    1.83     1.85   7.52720
-1.75000    1.82     1.85   7.52620
-1.70000    1.82     1.84   7.52480
-1.65000    1.82     1.84   7.52290
-1.60000    1.82     1.84   7.52000
-1.55000    1.82     1.84   7.51690
-1.50000    1.82     1.84   7.52060
-1.45000    1.82     1.84   7.52390
-1.40000    1.82     1.84   7.53280
-1.35000    1.82     1.84   7.54160
-1.30000    1.82     1.84   7.55160
-1.25000    1.82     1.84   7.56030
-1.20000    1.82     1.84   7.56730
-1.15000    1.82     1.84   7.57240
-1.10000    1.82     1.84   7.57740
-1.05000    1.82     1.84   7.58290
-1.00000    1.82     1.84   7.59420
-0.95000    1.82     1.84   7.59250
-0.90000    1.82     1.84   7.60010
-0.85000    1.82     1.84   7.60190
-0.80000    1.82     1.84   7.60380
-0.75000    1.82     1.84   7.60850
-0.70000    1.82     1.84   7.61080
-0.65000    1.82     1.84   7.60950
-0.60000    1.82     1.84   7.61380
-0.55000    1.82     1.84   7.61500
-0.50000    1.82     1.84   7.62140
-0.45000    1.82     1.84   7.61780
-0.40000    1.81     1.84   7.61910
-0.35000    1.81     1.84   7.62120
-0.30000    1.81     1.84   7.62320
-0.25000    1.81     1.84   7.62340
-0.20000    1.81     1.84   7.62430
-0.15000    1.81     1.84   7.62540
-0.10000    1.81     1.84   7.62780
-0.05000    1.81     1.84   7.62570
 0.00000    1.81     1.84   7.62880
