 Field[T] Tsmpl[K] Tcntr[K] Signal   Mirror[MM]
 0.00000    1.76     1.76   0.61357  -11.0065
 0.05000    1.76     1.76   0.61707  -11.0099
 0.10000    1.76     1.76   0.62062  -11.0094
 0.15000    1.76     1.76   0.62550  -11.0076
 0.20000    1.76     1.76   0.63186  -11.0061
 0.25000    1.76     1.76   0.63384  -11.0042
 0.30000    1.76     1.76   0.63894  -11.0019
 0.35000    1.76     1.76   0.64069  -10.9979
 0.40000    1.76     1.76   0.64398  -10.9946
 0.45000    1.76     1.76   0.64477  -10.9890
 0.50000    1.76     1.76   0.64645  -10.9858
 0.55000    1.76     1.76   0.64701  -10.9835
 0.60000    1.76     1.76   0.64618  -10.9820
 0.65000    1.76     1.76   0.64365  -10.9765
 0.70000    1.76     1.76   0.64331  -10.9724
 0.75000    1.76     1.76   0.64725  -10.9732
 0.80000    1.76     1.76   0.64698  -10.9727
 0.85000    1.76     1.76   0.64706  -10.9694
 0.90000    1.76     1.76   0.64797  -10.9673
 0.95000    1.76     1.76   0.64656  -10.9686
 1.00000    1.76     1.76   0.64709  -10.9668
 1.05000    1.76     1.76   0.64390  -10.9645
 1.10000    1.76     1.76   0.64602  -10.9634
 1.15000    1.76     1.76   0.64518  -10.9616
 1.20000    1.76     1.76   0.64563  -10.9601
 1.25000    1.76     1.76   0.64600  -10.9590
 1.30000    1.76     1.76   0.64640  -10.9579
 1.35000    1.76     1.76   0.64622  -10.9570
 1.40000    1.76     1.76   0.64646  -10.9557
 1.45000    1.76     1.76   0.64578  -10.9545
 1.50000    1.76     1.76   0.64776  -10.9542
 1.55000    1.76     1.76   0.64742  -10.9531
 1.60000    1.76     1.76   0.64805  -10.9511
 1.65000    1.76     1.76   0.64605  -10.9500
 1.70000    1.76     1.76   0.64763  -10.9493
 1.75000    1.76     1.76   0.64765  -10.9490
 1.80000    1.76     1.76   0.64702  -10.9492
 1.85000    1.76     1.76   0.64597  -10.9488
 1.90000    1.76     1.76   0.64762  -10.9485
 1.95000    1.76     1.76   0.64747  -10.9476
 2.00000    1.76     1.76   0.64811  -10.9457
 2.05000    1.76     1.76   0.64619  -10.9452
 2.10000    1.76     1.76   0.64742  -10.9447
 2.15000    1.76     1.76   0.64717  -10.9442
 2.20000    1.76     1.76   0.64874  -10.9450
 2.25000    1.76     1.76   0.64882  -10.9445
 2.30000    1.76     1.76   0.64968  -10.9440
 2.35000    1.76     1.76   0.64853  -10.9452
 2.40000    1.76     1.76   0.64896  -10.9446
 2.45000    1.76     1.76   0.64898  -10.9433
 2.50000    1.76     1.76   0.64878  -10.9425
 2.55000    1.76     1.76   0.64923  -10.9410
 2.60000    1.76     1.76   0.64878  -10.9398
 2.65000    1.76     1.76   0.64947  -10.9399
 2.70000    1.76     1.76   0.64838  -10.9405
 2.75000    1.76     1.76   0.64864  -10.9403
 2.80000    1.76     1.76   0.64890  -10.9399
 2.85000    1.76     1.76   0.64858  -10.9387
 2.90000    1.76     1.76   0.64792  -10.9386
 2.95000    1.76     1.76   0.64877  -10.9387
 3.00000    1.76     1.76   0.64747  -10.9382
 3.05000    1.76     1.76   0.64866  -10.9376
 3.10000    1.76     1.76   0.64867  -10.9362
 3.15000    1.76     1.76   0.64890  -10.9362
 3.20000    1.76     1.76   0.65016  -10.9357
 3.25000    1.76     1.76   0.64914  -10.9359
 3.30000    1.76     1.76   0.64696  -10.9336
 3.35000    1.76     1.76   0.64826  -10.9339
 3.40000    1.76     1.76   0.64941  -10.9341
 3.45000    1.76     1.76   0.64974  -10.9330
 3.50000    1.76     1.76   0.64821  -10.9326
 3.55000    1.76     1.76   0.64837  -10.9323
 3.60000    1.76     1.76   0.64891  -10.9342
 3.65000    1.76     1.76   0.64829  -10.9338
 3.70000    1.76     1.76   0.64970  -10.9314
 3.75000    1.76     1.76   0.64992  -10.9314
 3.80000    1.76     1.76   0.65083  -10.9316
 3.85000    1.76     1.76   0.64979  -10.9313
 3.90000    1.76     1.76   0.64875  -10.9284
 3.95000    1.76     1.76   0.64958  -10.9284
 4.00000    1.76     1.76   0.64808  -10.9275
 4.00000    1.76     1.76   0.64856  -10.9273
 3.95000    1.76     1.76   0.64963  -10.9305
 3.90000    1.76     1.76   0.64734  -10.9283
 3.85000    1.76     1.76   0.64584  -10.9263
 3.80000    1.76     1.76   0.64829  -10.9305
 3.75000    1.76     1.76   0.64864  -10.9302
 3.70000    1.76     1.76   0.64595  -10.9300
 3.65000    1.76     1.76   0.64776  -10.9324
 3.60000    1.76     1.76   0.64794  -10.9330
 3.55000    1.76     1.76   0.64675  -10.9323
 3.50000    1.76     1.76   0.64824  -10.9330
 3.45000    1.76     1.76   0.64875  -10.9343
 3.40000    1.76     1.76   0.64920  -10.9343
 3.35000    1.76     1.76   0.64656  -10.9335
 3.30000    1.76     1.76   0.64731  -10.9336
 3.25000    1.76     1.76   0.64861  -10.9346
 3.20000    1.76     1.76   0.64930  -10.9342
 3.15000    1.76     1.76   0.64888  -10.9347
 3.10000    1.76     1.76   0.64925  -10.9350
 3.05000    1.76     1.76   0.64854  -10.9358
 3.00000    1.76     1.76   0.64890  -10.9355
 2.95000    1.76     1.76   0.64853  -10.9359
 2.90000    1.76     1.76   0.64643  -10.9366
 2.85000    1.76     1.76   0.64488  -10.9363
 2.80000    1.76     1.76   0.64536  -10.9372
 2.75000    1.76     1.76   0.64552  -10.9382
 2.70000    1.76     1.76   0.64442  -10.9383
 2.65000    1.76     1.76   0.64602  -10.9392
 2.60000    1.76     1.76   0.64496  -10.9382
 2.55000    1.76     1.76   0.64443  -10.9372
 2.50000    1.76     1.76   0.64371  -10.9372
 2.45000    1.76     1.76   0.64478  -10.9391
 2.40000    1.76     1.76   0.64475  -10.9391
 2.35000    1.76     1.76   0.64538  -10.9397
 2.30000    1.76     1.76   0.64573  -10.9396
 2.25000    1.76     1.76   0.64650  -10.9406
 2.20000    1.76     1.76   0.64613  -10.9409
 2.15000    1.76     1.76   0.64619  -10.9406
 2.10000    1.76     1.76   0.64600  -10.9405
 2.05000    1.76     1.76   0.64814  -10.9405
 2.00000    1.76     1.76   0.64750  -10.9415
 1.95000    1.76     1.76   0.64846  -10.9427
 1.90000    1.76     1.76   0.64771  -10.9435
 1.85000    1.76     1.76   0.64656  -10.9431
 1.80000    1.76     1.76   0.64701  -10.9445
 1.75000    1.76     1.76   0.64654  -10.9438
 1.70000    1.76     1.76   0.64445  -10.9442
 1.65000    1.76     1.76   0.64586  -10.9455
 1.60000    1.76     1.76   0.64603  -10.9461
 1.55000    1.76     1.76   0.64646  -10.9463
 1.50000    1.76     1.76   0.64533  -10.9479
 1.45000    1.76     1.76   0.64523  -10.9485
 1.40000    1.76     1.76   0.64517  -10.9483
 1.35000    1.76     1.76   0.64430  -10.9495
 1.30000    1.76     1.76   0.64530  -10.9501
 1.25000    1.76     1.76   0.64440  -10.9518
 1.20000    1.76     1.76   0.64382  -10.9535
 1.15000    1.76     1.76   0.64400  -10.9519
 1.10000    1.76     1.76   0.64397  -10.9527
 1.05000    1.76     1.76   0.64485  -10.9548
 1.00000    1.76     1.76   0.64346  -10.9565
 0.95000    1.76     1.76   0.64451  -10.9588
 0.90000    1.76     1.76   0.64462  -10.9603
 0.85000    1.76     1.76   0.64379  -10.9620
 0.80000    1.76     1.76   0.64459  -10.9644
 0.75000    1.76     1.76   0.64554  -10.9664
 0.70000    1.76     1.76   0.64651  -10.9684
 0.65000    1.76     1.76   0.64350  -10.9703
 0.60000    1.76     1.76   0.64299  -10.9717
 0.55000    1.76     1.76   0.64174  -10.9754
 0.50000    1.76     1.76   0.64074  -10.9798
 0.45000    1.76     1.76   0.64029  -10.9860
 0.40000    1.76     1.76   0.63920  -10.9904
 0.35000    1.76     1.76   0.63690  -10.9941
 0.30000    1.76     1.76   0.63464  -10.9965
 0.25000    1.76     1.76   0.63099  -10.9996
 0.20000    1.76     1.76   0.62654  -11.0028
 0.15000    1.76     1.76   0.62110  -11.0013
 0.10000    1.76     1.76   0.61640  -11.0026
 0.05000    1.76     1.76   0.61510  -11.0020
 -0.00000    1.76     1.76   0.61302  -11.0010
 -0.05000    1.76     1.76   0.61365  -11.0026
 -0.10000    1.76     1.76   0.61970  -11.0011
 -0.15000    1.76     1.76   0.62235  -10.9992
 -0.20000    1.76     1.76   0.62691  -10.9991
 -0.25000    1.76     1.76   0.63310  -10.9988
 -0.30000    1.76     1.76   0.63944  -10.9964
 -0.35000    1.76     1.76   0.64237  -10.9918
 -0.40000    1.76     1.76   0.64446  -10.9874
 -0.45000    1.76     1.76   0.64704  -10.9832
 -0.50000    1.76     1.76   0.64755  -10.9776
 -0.55000    1.76     1.76   0.64910  -10.9737
 -0.60000    1.76     1.76   0.64925  -10.9701
 -0.65000    1.76     1.76   0.64883  -10.9683
 -0.70000    1.76     1.76   0.64848  -10.9656
 -0.75000    1.76     1.76   0.65054  -10.9629
 -0.80000    1.76     1.76   0.65130  -10.9618
 -0.85000    1.76     1.76   0.65069  -10.9601
 -0.90000    1.76     1.76   0.65301  -10.9587
 -0.95000    1.76     1.76   0.65323  -10.9577
 -1.00000    1.76     1.76   0.65373  -10.9563
 -1.05000    1.76     1.76   0.65222  -10.9538
 -1.10000    1.76     1.76   0.65416  -10.9534
 -1.15000    1.76     1.76   0.65456  -10.9532
 -1.20000    1.76     1.76   0.65381  -10.9512
 -1.25000    1.76     1.76   0.65422  -10.9492
 -1.30000    1.76     1.76   0.65483  -10.9510
 -1.35000    1.76     1.76   0.65238  -10.9490
 -1.40000    1.76     1.76   0.65261  -10.9475
 -1.45000    1.76     1.76   0.65221  -10.9471
 -1.50000    1.76     1.76   0.65266  -10.9463
 -1.55000    1.76     1.76   0.65294  -10.9456
 -1.60000    1.76     1.76   0.65446  -10.9443
 -1.65000    1.76     1.76   0.65483  -10.9440
 -1.70000    1.76     1.76   0.65430  -10.9434
 -1.75000    1.76     1.76   0.65461  -10.9427
 -1.80000    1.76     1.76   0.65458  -10.9419
 -1.85000    1.76     1.76   0.65507  -10.9413
 -1.90000    1.76     1.76   0.65704  -10.9415
 -1.95000    1.76     1.76   0.65573  -10.9404
 -2.00000    1.76     1.76   0.65693  -10.9387
 -2.05000    1.76     1.76   0.65696  -10.9378
 -2.10000    1.76     1.76   0.65683  -10.9392
 -2.15000    1.76     1.76   0.65728  -10.9383
 -2.20000    1.76     1.76   0.65920  -10.9396
 -2.25000    1.76     1.76   0.65797  -10.9387
 -2.30000    1.76     1.76   0.65802  -10.9387
 -2.35000    1.76     1.76   0.65965  -10.9383
 -2.40000    1.76     1.76   0.65923  -10.9359
 -2.45000    1.76     1.76   0.66102  -10.9375
 -2.50000    1.76     1.76   0.66022  -10.9355
 -2.55000    1.76     1.76   0.66054  -10.9363
 -2.60000    1.76     1.76   0.66139  -10.9362
 -2.65000    1.76     1.76   0.66355  -10.9342
 -2.70000    1.76     1.76   0.66267  -10.9343
 -2.75000    1.76     1.76   0.66174  -10.9345
 -2.80000    1.76     1.76   0.65906  -10.9337
 -2.85000    1.76     1.76   0.66125  -10.9340
 -2.90000    1.76     1.76   0.65946  -10.9331
 -2.95000    1.76     1.76   0.65890  -10.9332
 -3.00000    1.76     1.76   0.65968  -10.9332
 -3.05000    1.76     1.76   0.65901  -10.9314
 -3.10000    1.76     1.76   0.66094  -10.9317
 -3.15000    1.76     1.76   0.66110  -10.9316
 -3.20000    1.76     1.76   0.66278  -10.9311
 -3.25000    1.76     1.76   0.66347  -10.9307
 -3.30000    1.76     1.76   0.66413  -10.9300
 -3.35000    1.76     1.76   0.66446  -10.9300
 -3.40000    1.76     1.76   0.66488  -10.9285
 -3.45000    1.76     1.76   0.66614  -10.9298
 -3.50000    1.76     1.76   0.66590  -10.9279
 -3.55000    1.76     1.76   0.66554  -10.9277
 -3.60000    1.76     1.76   0.66475  -10.9279
 -3.65000    1.76     1.76   0.66578  -10.9266
 -3.70000    1.76     1.76   0.66590  -10.9270
 -3.75000    1.76     1.76   0.66701  -10.9265
 -3.80000    1.76     1.76   0.66598  -10.9259
 -3.85000    1.76     1.76   0.66565  -10.9252
 -3.90000    1.76     1.76   0.66510  -10.9248
 -3.95000    1.76     1.76   0.66493  -10.9255
 -4.00000    1.76     1.76   0.66498  -10.9263
 -4.00000    1.76     1.76   0.66512  -10.9244
 -3.95000    1.76     1.76   0.66448  -10.9254
 -3.90000    1.76     1.76   0.66350  -10.9263
 -3.85000    1.76     1.76   0.66370  -10.9265
 -3.80000    1.76     1.76   0.66256  -10.9259
 -3.75000    1.76     1.76   0.66286  -10.9252
 -3.70000    1.76     1.76   0.66458  -10.9262
 -3.65000    1.76     1.76   0.66445  -10.9261
 -3.60000    1.76     1.76   0.66174  -10.9258
 -3.55000    1.76     1.76   0.66442  -10.9262
 -3.50000    1.76     1.76   0.66483  -10.9270
 -3.45000    1.76     1.76   0.66411  -10.9275
 -3.40000    1.76     1.76   0.66368  -10.9264
 -3.35000    1.76     1.76   0.66298  -10.9271
 -3.30000    1.76     1.76   0.66411  -10.9278
 -3.25000    1.76     1.76   0.66338  -10.9284
 -3.20000    1.76     1.76   0.66205  -10.9284
 -3.15000    1.76     1.76   0.66040  -10.9288
 -3.10000    1.76     1.76   0.66053  -10.9289
 -3.05000    1.76     1.76   0.66184  -10.9291
 -3.00000    1.76     1.76   0.66182  -10.9285
 -2.95000    1.76     1.76   0.66163  -10.9299
 -2.90000    1.76     1.76   0.66240  -10.9300
 -2.85000    1.76     1.76   0.66205  -10.9308
 -2.80000    1.76     1.76   0.66200  -10.9314
 -2.75000    1.76     1.76   0.66230  -10.9313
 -2.70000    1.76     1.76   0.66035  -10.9313
 -2.65000    1.76     1.76   0.66077  -10.9316
 -2.60000    1.76     1.76   0.66123  -10.9323
 -2.55000    1.76     1.76   0.65904  -10.9322
 -2.50000    1.76     1.76   0.65781  -10.9319
 -2.45000    1.76     1.76   0.65790  -10.9329
 -2.40000    1.76     1.76   0.65722  -10.9332
 -2.35000    1.76     1.76   0.65771  -10.9337
 -2.30000    1.76     1.76   0.65706  -10.9335
 -2.25000    1.76     1.76   0.65621  -10.9340
 -2.20000    1.76     1.76   0.65579  -10.9344
 -2.15000    1.76     1.76   0.65550  -10.9340
 -2.10000    1.76     1.76   0.65523  -10.9347
 -2.05000    1.76     1.76   0.65490  -10.9344
 -2.00000    1.76     1.76   0.65472  -10.9360
 -1.95000    1.76     1.76   0.65589  -10.9366
 -1.90000    1.76     1.76   0.65403  -10.9370
 -1.85000    1.76     1.76   0.65402  -10.9377
 -1.80000    1.76     1.76   0.65382  -10.9368
 -1.75000    1.76     1.76   0.65362  -10.9373
 -1.70000    1.76     1.76   0.65333  -10.9373
 -1.65000    1.76     1.76   0.65261  -10.9388
 -1.60000    1.76     1.76   0.65298  -10.9397
 -1.55000    1.76     1.76   0.65306  -10.9406
 -1.50000    1.76     1.76   0.65368  -10.9405
 -1.45000    1.76     1.76   0.65336  -10.9410
 -1.40000    1.76     1.76   0.65419  -10.9402
 -1.35000    1.76     1.76   0.65242  -10.9423
 -1.30000    1.76     1.76   0.65294  -10.9437
 -1.25000    1.76     1.76   0.65240  -10.9450
 -1.20000    1.76     1.76   0.65261  -10.9458
 -1.15000    1.76     1.76   0.65163  -10.9471
 -1.10000    1.76     1.76   0.65246  -10.9490
 -1.05000    1.76     1.76   0.65243  -10.9493
 -1.00000    1.76     1.76   0.64894  -10.9501
 -0.95000    1.76     1.76   0.65192  -10.9525
 -0.90000    1.76     1.76   0.65043  -10.9532
 -0.85000    1.76     1.76   0.65160  -10.9539
 -0.80000    1.76     1.76   0.65016  -10.9553
 -0.75000    1.76     1.76   0.65054  -10.9569
 -0.70000    1.76     1.76   0.64918  -10.9586
 -0.65000    1.76     1.76   0.65067  -10.9609
 -0.60000    1.76     1.76   0.64885  -10.9638
 -0.55000    1.76     1.76   0.64960  -10.9683
 -0.50000    1.76     1.76   0.64880  -10.9727
 -0.45000    1.76     1.76   0.64506  -10.9761
 -0.40000    1.76     1.76   0.64608  -10.9812
 -0.35000    1.76     1.76   0.64288  -10.9849
 -0.30000    1.76     1.76   0.63750  -10.9885
 -0.25000    1.76     1.76   0.63336  -10.9903
 -0.20000    1.76     1.76   0.63282  -10.9948
 -0.15000    1.76     1.76   0.62622  -10.9973
 -0.10000    1.76     1.76   0.62368  -10.9997
 -0.05000    1.76     1.76   0.62042  -11.0028
 0.00000    1.76     1.76   0.61869  -11.0011
