 Field[T] Tsmpl[K] Tcntr[K] Signal   Mirror[MM]
 0.00000    1.82     1.82   0.23631  -10.9650
 0.05000    1.82     1.82   0.23640  -10.9651
 0.10000    1.82     1.82   0.23638  -10.9655
 0.15000    1.82     1.82   0.23635  -10.9656
 0.20000    1.82     1.82   0.23634  -10.9656
 0.25000    1.82     1.82   0.23636  -10.9661
 0.30000    1.82     1.82   0.23636  -10.9662
 0.35000    1.82     1.82   0.23633  -10.9662
 0.40000    1.82     1.82   0.23637  -10.9661
 0.45000    1.82     1.82   0.23644  -10.9663
 0.50000    1.82     1.82   0.23635  -10.9667
 0.55000    1.82     1.82   0.23639  -10.9666
 0.60000    1.82     1.82   0.23632  -10.9666
 0.65000    1.82     1.82   0.23648  -10.9665
 0.70000    1.82     1.82   0.23634  -10.9663
 0.75000    1.82     1.82   0.23645  -10.9662
 0.80000    1.82     1.82   0.23637  -10.9663
 0.85000    1.82     1.82   0.23634  -10.9660
 0.90000    1.82     1.82   0.23626  -10.9660
 0.95000    1.82     1.82   0.23626  -10.9660
 1.00000    1.82     1.82   0.23608  -10.9660
 1.05000    1.82     1.82   0.23606  -10.9661
 1.10000    1.82     1.82   0.23599  -10.9661
 1.15000    1.82     1.82   0.23574  -10.9658
 1.20000    1.82     1.82   0.23553  -10.9657
 1.25000    1.82     1.82   0.23518  -10.9657
 1.30000    1.82     1.82   0.23485  -10.9658
 1.35000    1.82     1.82   0.23455  -10.9660
 1.40000    1.82     1.82   0.23410  -10.9657
 1.45000    1.82     1.82   0.23385  -10.9660
 1.50000    1.82     1.82   0.23348  -10.9663
 1.55000    1.82     1.82   0.23321  -10.9664
 1.60000    1.82     1.82   0.23310  -10.9663
 1.65000    1.82     1.82   0.23296  -10.9665
 1.70000    1.82     1.82   0.23287  -10.9666
 1.75000    1.82     1.82   0.23286  -10.9668
 1.80000    1.82     1.82   0.23273  -10.9670
 1.85000    1.82     1.82   0.23265  -10.9669
 1.90000    1.82     1.82   0.23269  -10.9670
 1.95000    1.82     1.82   0.23267  -10.9672
 2.00000    1.82     1.82   0.23267  -10.9673
 2.05000    1.82     1.82   0.23266  -10.9674
 2.10000    1.82     1.82   0.23267  -10.9677
 2.15000    1.82     1.82   0.23256  -10.9678
 2.20000    1.82     1.82   0.23252  -10.9677
 2.25000    1.82     1.82   0.23259  -10.9677
 2.30000    1.82     1.82   0.23246  -10.9678
 2.35000    1.82     1.82   0.23252  -10.9678
 2.40000    1.82     1.82   0.23251  -10.9679
 2.45000    1.82     1.82   0.23245  -10.9683
 2.50000    1.82     1.82   0.23244  -10.9687
 2.55000    1.82     1.82   0.23241  -10.9683
 2.60000    1.82     1.82   0.23247  -10.9684
 2.65000    1.82     1.82   0.23258  -10.9686
 2.70000    1.82     1.82   0.23246  -10.9683
 2.75000    1.82     1.82   0.23247  -10.9682
 2.80000    1.82     1.82   0.23245  -10.9681
 2.85000    1.82     1.82   0.23244  -10.9685
 2.90000    1.82     1.82   0.23234  -10.9685
 2.95000    1.82     1.82   0.23236  -10.9684
 3.00000    1.82     1.82   0.23232  -10.9685
 3.05000    1.82     1.82   0.23230  -10.9686
 3.10000    1.82     1.82   0.23224  -10.9689
 3.15000    1.82     1.82   0.23217  -10.9687
 3.20000    1.82     1.82   0.23224  -10.9686
 3.25000    1.82     1.82   0.23201  -10.9689
 3.30000    1.82     1.82   0.23214  -10.9687
 3.35000    1.82     1.82   0.23206  -10.9689
 3.40000    1.82     1.82   0.23200  -10.9690
 3.45000    1.82     1.82   0.23192  -10.9687
 3.50000    1.82     1.82   0.23193  -10.9688
 3.55000    1.82     1.82   0.23170  -10.9689
 3.60000    1.82     1.82   0.23180  -10.9688
 3.65000    1.82     1.82   0.23166  -10.9689
 3.70000    1.82     1.82   0.23163  -10.9689
 3.75000    1.82     1.82   0.23162  -10.9687
 3.80000    1.82     1.82   0.23154  -10.9687
 3.85000    1.82     1.82   0.23144  -10.9691
 3.90000    1.82     1.82   0.23130  -10.9691
 3.95000    1.82     1.82   0.23148  -10.9688
 4.00000    1.82     1.82   0.23122  -10.9687
 4.00000    1.82     1.82   0.23125  -10.9689
 3.95000    1.82     1.82   0.23125  -10.9690
 3.90000    1.82     1.82   0.23131  -10.9692
 3.85000    1.82     1.82   0.23134  -10.9691
 3.80000    1.82     1.82   0.23130  -10.9690
 3.75000    1.82     1.82   0.23136  -10.9688
 3.70000    1.82     1.82   0.23128  -10.9689
 3.65000    1.82     1.82   0.23134  -10.9689
 3.60000    1.82     1.82   0.23134  -10.9686
 3.55000    1.82     1.82   0.23123  -10.9689
 3.50000    1.82     1.82   0.23132  -10.9690
 3.45000    1.82     1.82   0.23117  -10.9690
 3.40000    1.82     1.82   0.23124  -10.9690
 3.35000    1.82     1.82   0.23123  -10.9691
 3.30000    1.82     1.82   0.23109  -10.9692
 3.25000    1.82     1.82   0.23116  -10.9688
 3.20000    1.82     1.82   0.23122  -10.9689
 3.15000    1.82     1.82   0.23113  -10.9692
 3.10000    1.82     1.82   0.23108  -10.9690
 3.05000    1.82     1.82   0.23119  -10.9689
 3.00000    1.82     1.82   0.23107  -10.9688
 2.95000    1.82     1.82   0.23101  -10.9688
 2.90000    1.82     1.82   0.23105  -10.9687
 2.85000    1.82     1.82   0.23101  -10.9690
 2.80000    1.82     1.82   0.23102  -10.9689
 2.75000    1.82     1.82   0.23090  -10.9690
 2.70000    1.82     1.82   0.23071  -10.9689
 2.65000    1.82     1.82   0.23074  -10.9691
 2.60000    1.82     1.82   0.23067  -10.9691
 2.55000    1.82     1.82   0.23057  -10.9689
 2.50000    1.82     1.82   0.23051  -10.9689
 2.45000    1.82     1.82   0.23047  -10.9689
 2.40000    1.82     1.82   0.23046  -10.9690
 2.35000    1.82     1.82   0.23046  -10.9688
 2.30000    1.82     1.82   0.23038  -10.9688
 2.25000    1.82     1.82   0.23029  -10.9688
 2.20000    1.82     1.82   0.23024  -10.9687
 2.15000    1.82     1.82   0.23015  -10.9687
 2.10000    1.82     1.82   0.23015  -10.9684
 2.05000    1.82     1.82   0.23016  -10.9684
 2.00000    1.82     1.82   0.22996  -10.9683
 1.95000    1.82     1.82   0.23012  -10.9681
 1.90000    1.82     1.82   0.23001  -10.9680
 1.85000    1.82     1.82   0.23010  -10.9679
 1.80000    1.82     1.82   0.23011  -10.9679
 1.75000    1.82     1.82   0.23012  -10.9676
 1.70000    1.82     1.82   0.23029  -10.9673
 1.65000    1.82     1.82   0.23028  -10.9673
 1.60000    1.82     1.82   0.23056  -10.9672
 1.55000    1.82     1.82   0.23075  -10.9667
 1.50000    1.82     1.82   0.23090  -10.9668
 1.45000    1.82     1.82   0.23104  -10.9665
 1.40000    1.82     1.82   0.23142  -10.9664
 1.35000    1.82     1.82   0.23193  -10.9663
 1.30000    1.82     1.82   0.23218  -10.9664
 1.25000    1.82     1.82   0.23257  -10.9663
 1.20000    1.82     1.82   0.23283  -10.9664
 1.15000    1.82     1.82   0.23326  -10.9664
 1.10000    1.82     1.82   0.23338  -10.9667
 1.05000    1.82     1.82   0.23345  -10.9663
 1.00000    1.82     1.82   0.23367  -10.9665
 0.95000    1.82     1.82   0.23367  -10.9666
 0.90000    1.82     1.82   0.23379  -10.9669
 0.85000    1.82     1.82   0.23387  -10.9665
 0.80000    1.82     1.82   0.23397  -10.9664
 0.75000    1.82     1.82   0.23419  -10.9664
 0.70000    1.82     1.82   0.23435  -10.9662
 0.65000    1.82     1.82   0.23436  -10.9666
 0.60000    1.82     1.82   0.23442  -10.9664
 0.55000    1.82     1.82   0.23451  -10.9666
 0.50000    1.82     1.82   0.23457  -10.9666
 0.45000    1.82     1.82   0.23463  -10.9664
 0.40000    1.82     1.82   0.23481  -10.9662
 0.35000    1.82     1.82   0.23480  -10.9663
 0.30000    1.82     1.82   0.23491  -10.9663
 0.25000    1.82     1.82   0.23492  -10.9658
 0.20000    1.82     1.82   0.23494  -10.9657
 0.15000    1.82     1.82   0.23492  -10.9657
 0.10000    1.82     1.82   0.23496  -10.9661
 0.05000    1.82     1.82   0.23496  -10.9655
 -0.00000    1.82     1.82   0.23509  -10.9649
