 Field[T] Tsmpl[K] Tcntr[K] Signal   Mirror[MM]
 0.00000    5.56     3.17   0.49702  3.7125
 0.05000    5.55     3.18   0.49699  3.7125
 0.10000    5.54     3.18   0.49732  3.7125
 0.15000    5.53     3.19   0.49700  3.7125
 0.20000    5.53     3.18   0.49737  3.7125
 0.25000    5.52     3.17   0.49719  3.7125
 0.30000    5.51     3.18   0.49729  3.7125
 0.35000    5.51     3.19   0.49748  3.7125
 0.40000    5.51     3.18   0.49759  3.7125
 0.45000    5.51     3.19   0.49734  3.7130
 0.50000    5.51     3.18   0.49737  3.7135
 0.55000    5.50     3.19   0.49724  3.7135
 0.60000    5.50     3.19   0.49726  3.7135
 0.65000    5.49     3.18   0.49716  3.7140
 0.70000    5.48     3.19   0.49713  3.7145
 0.75000    5.48     3.18   0.49686  3.7145
 0.80000    5.47     3.17   0.49700  3.7145
 0.85000    5.46     3.18   0.49686  3.7145
 0.90000    5.45     3.18   0.49660  3.7135
 0.95000    5.43     3.15   0.49596  3.7135
 1.00000    5.41     3.14   0.49611  3.7135
 1.05000    5.38     3.13   0.49602  3.7135
 1.10000    5.35     3.12   0.49594  3.7135
 1.15000    5.32     3.11   0.49572  3.7135
 1.20000    5.29     3.12   0.49550  3.7135
 1.25000    5.27     3.12   0.49568  3.7135
 1.30000    5.25     3.11   0.49582  3.7150
 1.35000    5.23     3.12   0.49636  3.7150
 1.40000    5.21     3.12   0.49612  3.7150
 1.45000    5.19     3.14   0.49595  3.7150
 1.50000    5.18     3.13   0.49631  3.7150
 1.55000    5.16     3.13   0.49605  3.7152
 1.60000    5.15     3.13   0.49557  3.7155
 1.65000    5.13     3.14   0.49492  3.7160
 1.70000    5.12     3.14   0.49460  3.7155
 1.75000    5.11     3.15   0.49436  3.7155
 1.80000    5.11     3.15   0.49414  3.7155
 1.85000    5.11     3.16   0.49409  3.7155
 1.90000    5.11     3.16   0.49382  3.7155
 1.95000    5.10     3.16   0.49385  3.7155
 2.00000    5.10     3.18   0.49334  3.7160
 2.05000    5.10     3.18   0.49285  3.7160
 2.10000    5.10     3.17   0.49233  3.7160
 2.15000    5.11     3.19   0.49227  3.7160
 2.20000    5.12     3.19   0.49215  3.7150
 2.25000    5.12     3.18   0.49227  3.7149
 2.30000    5.13     3.19   0.49284  3.7145
 2.35000    5.14     3.20   0.49326  3.7145
 2.40000    5.15     3.20   0.49272  3.7150
 2.45000    5.16     3.19   0.49191  3.7150
 2.50000    5.17     3.20   0.49151  3.7155
 2.55000    5.18     3.21   0.49171  3.7145
 2.60000    5.19     3.20   0.49247  3.7140
 2.65000    5.20     3.20   0.49324  3.7140
 2.70000    5.21     3.21   0.49290  3.7158
 2.75000    5.22     3.21   0.49256  3.7150
 2.80000    5.24     3.20   0.49221  3.7155
 2.85000    5.24     3.20   0.49228  3.7151
 2.90000    5.25     3.21   0.49212  3.7145
 2.95000    5.26     3.20   0.49219  3.7160
 3.00000    5.26     3.21   0.49196  3.7152
 3.05000    5.26     3.20   0.49190  3.7159
 3.10000    5.26     3.21   0.49198  3.7151
 3.15000    5.27     3.21   0.49182  3.7140
 3.20000    5.28     3.21   0.49187  3.7140
 3.25000    5.28     3.21   0.49163  3.7145
 3.30000    5.28     3.22   0.49152  3.7154
 3.35000    5.28     3.21   0.49149  3.7145
 3.40000    5.28     3.21   0.49132  3.7145
 3.45000    5.29     3.22   0.49172  3.7155
 3.50000    5.29     3.22   0.49145  3.7155
 3.55000    5.30     3.20   0.49153  3.7165
 3.60000    5.30     3.21   0.49119  3.7160
 3.65000    5.30     3.22   0.49110  3.7150
 3.70000    5.31     3.21   0.49128  3.7147
 3.75000    5.31     3.20   0.49090  3.7145
 3.80000    5.31     3.20   0.49050  3.7150
 3.85000    5.31     3.20   0.49020  3.7150
 3.90000    5.31     3.20   0.48987  3.7150
 3.95000    5.31     3.20   0.48999  3.7144
 4.00000    5.31     3.19   0.48961  3.7140
 4.05000    5.31     3.21   0.48929  3.7150
 4.10000    5.31     3.20   0.48914  3.7140
 4.15000    5.32     3.19   0.48903  3.7140
 4.20000    5.32     3.21   0.48858  3.7135
 4.25000    5.33     3.20   0.48855  3.7135
 4.30000    5.34     3.20   0.48842  3.7144
 4.35000    5.34     3.20   0.48811  3.7152
 4.40000    5.35     3.21   0.48837  3.7155
 4.45000    5.36     3.20   0.48822  3.7155
 4.50000    5.36     3.20   0.48802  3.7145
 4.55000    5.37     3.20   0.48786  3.7140
 4.60000    5.37     3.21   0.48737  3.7140
 4.65000    5.38     3.20   0.48735  3.7155
 4.70000    5.38     3.20   0.48734  3.7155
 4.75000    5.38     3.21   0.48749  3.7135
 4.80000    5.38     3.20   0.48723  3.7135
 4.85000    5.37     3.19   0.48604  3.7135
 4.90000    5.36     3.20   0.48694  3.7130
 4.95000    5.36     3.20   0.48678  3.7125
 5.00000    5.36     3.19   0.48700  3.7125
 5.05000    5.36     3.20   0.48648  3.7120
 5.10000    5.36     3.20   0.48655  3.7120
 5.15000    5.36     3.20   0.48643  3.7120
 5.20000    5.36     3.20   0.48643  3.7120
 5.25000    5.37     3.21   0.48606  3.7120
 5.30000    5.38     3.20   0.48641  3.7120
 5.35000    5.38     3.20   0.48644  3.7120
 5.40000    5.39     3.20   0.48608  3.7120
 5.45000    5.40     3.21   0.48596  3.7120
 5.50000    5.41     3.21   0.48582  3.7125
 5.55000    5.41     3.20   0.48623  3.7125
 5.60000    5.42     3.20   0.48578  3.7130
 5.65000    5.42     3.22   0.48583  3.7130
 5.70000    5.43     3.20   0.48588  3.7135
 5.75000    5.43     3.19   0.48577  3.7130
 5.80000    5.43     3.21   0.48547  3.7130
 5.85000    5.43     3.19   0.48556  3.7130
 5.90000    5.43     3.20   0.48554  3.7130
 5.95000    5.43     3.19   0.48543  3.7120
 6.00000    5.42     3.21   0.48524  3.7120
 6.05000    5.42     3.20   0.48500  3.7130
 6.10000    5.42     3.20   0.48547  3.7125
 6.15000    5.42     3.20   0.48551  3.7120
 6.20000    5.42     3.21   0.48516  3.7115
 6.25000    5.42     3.20   0.48533  3.7115
 6.30000    5.42     3.20   0.48495  3.7110
 6.35000    5.43     3.20   0.48529  3.7110
 6.40000    5.43     3.20   0.48517  3.7110
 6.45000    5.44     3.20   0.48560  3.7110
 6.50000    5.45     3.20   0.48514  3.7110
 6.55000    5.45     3.20   0.48545  3.7115
 6.60000    5.47     3.20   0.48546  3.7113
 6.65000    5.48     3.20   0.48519  3.7120
 6.70000    5.49     3.20   0.48512  3.7120
 6.75000    5.50     3.21   0.48519  3.7115
 6.80000    5.51     3.20   0.48489  3.7115
 6.85000    5.53     3.20   0.48493  3.7112
 6.90000    5.55     3.21   0.48509  3.7110
 6.95000    5.56     3.20   0.48500  3.7119
 7.00000    5.57     3.20   0.48496  3.7110
