 Field[T] Tsmpl[K] Tcntr[K] Signal   Mirror[MM]
 0.00000    4.29     3.18   0.61034  3.8120
 0.05000    4.30     3.18   0.61099  3.8120
 0.10000    4.30     3.20   0.61048  3.8120
 0.15000    4.30     3.18   0.61082  3.8115
 0.20000    4.30     3.18   0.61154  3.8110
 0.25000    4.31     3.20   0.61138  3.8110
 0.30000    4.31     3.19   0.61120  3.8110
 0.35000    4.31     3.19   0.61115  3.8110
 0.40000    4.31     3.19   0.61136  3.8110
 0.45000    4.31     3.21   0.61109  3.8110
 0.50000    4.31     3.18   0.61203  3.8110
 0.55000    4.31     3.20   0.61280  3.8110
 0.60000    4.31     3.19   0.61263  3.8110
 0.65000    4.31     3.19   0.61210  3.8110
 0.70000    4.31     3.19   0.61204  3.8110
 0.75000    4.31     3.19   0.61201  3.8110
 0.80000    4.31     3.19   0.61160  3.8110
 0.85000    4.31     3.20   0.61215  3.8110
 0.90000    4.31     3.19   0.61103  3.8110
 0.95000    4.31     3.20   0.61050  3.8110
 1.00000    4.31     3.20   0.60780  3.8110
 1.05000    4.31     3.20   0.60773  3.8110
 1.10000    4.32     3.21   0.60622  3.8110
 1.15000    4.32     3.19   0.60548  3.8110
 1.20000    4.33     3.19   0.60588  3.8110
 1.25000    4.33     3.18   0.60092  3.8115
 1.30000    4.33     3.20   0.59504  3.8110
 1.35000    4.34     3.19   0.59532  3.8115
 1.40000    4.34     3.19   0.59320  3.8115
 1.45000    4.33     3.19   0.59098  3.8120
 1.50000    4.34     3.19   0.59157  3.8120
 1.55000    4.33     3.20   0.59048  3.8120
 1.60000    4.33     3.19   0.58969  3.8124
 1.65000    4.32     3.18   0.59004  3.8125
 1.70000    4.32     3.20   0.58944  3.8125
 1.75000    4.32     3.20   0.58952  3.8125
 1.80000    4.32     3.19   0.58824  3.8125
 1.85000    4.32     3.21   0.58670  3.8125
 1.90000    4.32     3.20   0.58649  3.8125
 1.95000    4.32     3.19   0.58686  3.8125
 2.00000    4.31     3.19   0.58576  3.8125
 2.05000    4.32     3.19   0.58470  3.8125
 2.10000    4.31     3.19   0.58559  3.8120
 2.15000    4.31     3.19   0.58568  3.8120
 2.20000    4.31     3.19   0.58566  3.8120
 2.25000    4.31     3.19   0.58664  3.8120
 2.30000    4.31     3.18   0.58652  3.8120
 2.35000    4.30     3.19   0.58692  3.8120
 2.40000    4.30     3.20   0.58629  3.8120
 2.45000    4.30     3.19   0.58567  3.8120
 2.50000    4.29     3.21   0.58681  3.8120
 2.55000    4.29     3.20   0.58761  3.8120
 2.60000    4.29     3.20   0.58787  3.8120
 2.65000    4.29     3.20   0.58718  3.8125
 2.70000    4.30     3.21   0.58766  3.8135
 2.75000    4.30     3.21   0.58595  3.8140
 2.80000    4.30     3.20   0.58457  3.8145
 2.85000    4.30     3.21   0.58447  3.8145
 2.90000    4.30     3.21   0.58233  3.8145
 2.95000    4.31     3.20   0.58168  3.8145
 3.00000    4.31     3.21   0.58203  3.8140
 3.05000    4.31     3.19   0.58131  3.8140
 3.10000    4.30     3.20   0.58022  3.8140
 3.15000    4.31     3.20   0.57935  3.8140
 3.20000    4.32     3.22   0.57941  3.8140
 3.25000    4.32     3.20   0.57945  3.8150
 3.30000    4.33     3.21   0.57960  3.8150
 3.35000    4.33     3.21   0.57876  3.8150
 3.40000    4.33     3.21   0.57775  3.8150
 3.45000    4.34     3.21   0.57741  3.8150
 3.50000    4.35     3.23   0.57648  3.8150
 3.55000    4.36     3.21   0.57578  3.8155
 3.60000    4.36     3.22   0.57615  3.8155
 3.65000    4.36     3.22   0.57592  3.8155
 3.70000    4.36     3.21   0.57431  3.8160
 3.75000    4.37     3.22   0.57504  3.8160
 3.80000    4.37     3.25   0.57420  3.8155
 3.85000    4.38     3.22   0.57332  3.8155
 3.90000    4.39     3.22   0.57390  3.8150
 3.95000    4.40     3.23   0.57333  3.8150
 4.00000    4.41     3.24   0.57239  3.8150
 4.05000    4.42     3.25   0.57244  3.8150
 4.10000    4.44     3.25   0.57213  3.8150
 4.15000    4.46     3.26   0.57126  3.8150
 4.20000    4.47     3.25   0.57048  3.8150
 4.25000    4.48     3.27   0.56989  3.8150
 4.30000    4.49     3.26   0.56995  3.8150
 4.35000    4.50     3.25   0.56931  3.8150
 4.40000    4.51     3.26   0.56906  3.8150
 4.45000    4.51     3.25   0.56814  3.8155
 4.50000    4.52     3.26   0.56793  3.8155
 4.55000    4.53     3.26   0.56837  3.8150
 4.60000    4.53     3.26   0.56800  3.8150
 4.65000    4.55     3.26   0.56730  3.8145
 4.70000    4.55     3.28   0.56747  3.8145
 4.75000    4.55     3.27   0.56644  3.8145
 4.80000    4.56     3.28   0.56648  3.8145
 4.85000    4.57     3.27   0.56523  3.8145
 4.90000    4.58     3.27   0.56434  3.8145
 4.95000    4.59     3.27   0.56368  3.8145
 5.00000    4.60     3.27   0.56324  3.8145
 5.05000    4.61     3.26   0.56344  3.8145
 5.10000    4.62     3.26   0.56319  3.8145
 5.15000    4.62     3.26   0.56317  3.8140
 5.20000    4.63     3.26   0.56299  3.8140
 5.25000    4.64     3.27   0.56324  3.8140
 5.30000    4.65     3.27   0.56236  3.8140
 5.35000    4.67     3.26   0.56205  3.8136
 5.40000    4.69     3.26   0.56271  3.8135
 5.45000    4.71     3.28   0.56153  3.8135
 5.50000    4.72     3.26   0.56124  3.8135
 5.55000    4.72     3.26   0.56092  3.8135
 5.60000    4.72     3.26   0.56173  3.8135
 5.65000    4.72     3.27   0.56082  3.8135
 5.70000    4.73     3.25   0.56045  3.8135
 5.75000    4.74     3.27   0.56084  3.8135
 5.80000    4.74     3.26   0.55962  3.8135
 5.85000    4.73     3.26   0.55936  3.8135
 5.90000    4.73     3.26   0.55954  3.8130
 5.95000    4.73     3.26   0.55853  3.8130
 6.00000    4.73     3.26   0.55839  3.8130
 6.05000    4.73     3.25   0.55841  3.8130
 6.10000    4.73     3.25   0.55842  3.8130
 6.15000    4.74     3.25   0.55803  3.8130
 6.20000    4.75     3.25   0.55769  3.8128
 6.25000    4.77     3.27   0.55795  3.8125
 6.30000    4.78     3.25   0.55803  3.8125
 6.35000    4.79     3.25   0.55773  3.8125
 6.40000    4.79     3.25   0.55782  3.8125
 6.45000    4.80     3.24   0.55728  3.8125
 6.50000    4.80     3.23   0.55717  3.8125
 6.55000    4.79     3.23   0.55756  3.8125
 6.60000    4.80     3.25   0.55737  3.8125
 6.65000    4.81     3.24   0.55688  3.8125
 6.70000    4.81     3.23   0.55655  3.8125
 6.75000    4.81     3.22   0.55673  3.8125
 6.80000    4.82     3.24   0.55617  3.8125
 6.85000    4.82     3.23   0.55630  3.8125
 6.90000    4.82     3.23   0.55693  3.8125
 6.95000    4.84     3.25   0.55633  3.8125
 7.00000    4.85     3.23   0.55614  3.8125
