 Field[T] Tsmpl[K] Tcntr[K] Signal   Mirror[MM]
 7.00000    5.35     3.25   0.93253  3.9050
 6.95000    5.35     3.23   0.93313  3.9050
 6.90000    5.35     3.23   0.93347  3.9055
 6.85000    5.35     3.23   0.93285  3.9060
 6.80000    5.34     3.24   0.93420  3.9060
 6.75000    5.34     3.24   0.93482  3.9065
 6.70000    5.34     3.25   0.93564  3.9065
 6.65000    5.34     3.24   0.93558  3.9065
 6.60000    5.34     3.24   0.93615  3.9065
 6.55000    5.33     3.23   0.93609  3.9070
 6.50000    5.33     3.24   0.93560  3.9070
 6.45000    5.33     3.22   0.93658  3.9070
 6.40000    5.33     3.23   0.93683  3.9070
 6.35000    5.33     3.23   0.93670  3.9075
 6.30000    5.34     3.24   0.93689  3.9075
 6.25000    5.35     3.23   0.93732  3.9075
 6.20000    5.35     3.23   0.93692  3.9080
 6.15000    5.35     3.22   0.93751  3.9080
 6.10000    5.36     3.22   0.93776  3.9080
 6.05000    5.36     3.23   0.93850  3.9080
 6.00000    5.37     3.23   0.93878  3.9080
 5.95000    5.37     3.21   0.93948  3.9080
 5.90000    5.38     3.21   0.94008  3.9080
 5.85000    5.38     3.21   0.94024  3.9080
 5.80000    5.38     3.23   0.94020  3.9080
 5.75000    5.39     3.20   0.94008  3.9080
 5.70000    5.38     3.21   0.94049  3.9080
 5.65000    5.38     3.20   0.94101  3.9080
 5.60000    5.37     3.20   0.94066  3.9085
 5.55000    5.37     3.21   0.94154  3.9085
 5.50000    5.37     3.20   0.94138  3.9085
 5.45000    5.37     3.20   0.94139  3.9085
 5.40000    5.38     3.20   0.94276  3.9085
 5.35000    5.38     3.20   0.94292  3.9085
 5.30000    5.39     3.22   0.94314  3.9085
 5.25000    5.40     3.20   0.94299  3.9090
 5.20000    5.41     3.19   0.94338  3.9090
 5.15000    5.41     3.20   0.94412  3.9095
 5.10000    5.42     3.22   0.94444  3.9095
 5.05000    5.43     3.20   0.94506  3.9095
 5.00000    5.44     3.21   0.94499  3.9095
 4.95000    5.45     3.21   0.94499  3.9095
 4.90000    5.47     3.21   0.94610  3.9095
 4.85000    5.48     3.20   0.94616  3.9095
 4.80000    5.49     3.20   0.94683  3.9095
 4.75000    5.51     3.20   0.94757  3.9095
 4.70000    5.53     3.21   0.94805  3.9095
 4.65000    5.54     3.22   0.94837  3.9095
 4.60000    5.56     3.20   0.95007  3.9095
 4.55000    5.57     3.20   0.95030  3.9095
 4.50000    5.58     3.19   0.95100  3.9095
 4.45000    5.60     3.21   0.95146  3.9095
 4.40000    5.61     3.21   0.95205  3.9095
 4.35000    5.63     3.21   0.95301  3.9095
 4.30000    5.64     3.21   0.95384  3.9095
 4.25000    5.64     3.21   0.95420  3.9095
 4.20000    5.65     3.22   0.95432  3.9095
 4.15000    5.66     3.20   0.95472  3.9095
 4.10000    5.66     3.21   0.95386  3.9095
 4.05000    5.66     3.20   0.95219  3.9095
 4.00000    5.67     3.20   0.95313  3.9100
 3.95000    5.68     3.21   0.95475  3.9095
 3.90000    5.68     3.20   0.95485  3.9090
 3.85000    5.69     3.21   0.95537  3.9090
 3.80000    5.70     3.20   0.95630  3.9090
 3.75000    5.71     0.00   0.95581  3.9090
 3.70000    5.71     3.21   0.95643  3.9085
 3.65000    5.72     3.19   0.95728  3.9085
 3.60000    5.72     3.20   0.95742  3.9085
 3.55000    5.72     3.20   0.95824  3.9085
 3.50000    5.72     3.21   0.95899  3.9080
 3.45000    5.72     3.20   0.95844  3.9080
 3.40000    5.72     3.21   0.95948  3.9080
 3.35000    5.71     3.19   0.96083  3.9080
 3.30000    5.70     3.20   0.96116  3.9085
 3.25000    5.69     3.20   0.96180  3.9085
 3.20000    5.68     3.19   0.96256  3.9082
 3.15000    5.68     3.19   0.96134  3.9080
 3.10000    5.67     3.19   0.96096  3.9075
 3.05000    5.66     3.20   0.95993  3.9070
 3.00000    5.65     3.20   0.95947  3.9075
 2.95000    5.64     3.20   0.95968  3.9075
 2.90000    5.63     3.19   0.96057  3.9075
 2.85000    5.62     3.19   0.96144  3.9075
 2.80000    5.61     3.21   0.96150  3.9080
 2.75000    5.60     3.18   0.96088  3.9080
 2.70000    5.59     3.20   0.96058  3.9080
 2.65000    5.58     3.19   0.96054  3.9080
 2.60000    5.57     3.20   0.96044  3.9080
 2.55000    5.57     3.19   0.96052  3.9080
 2.50000    5.56     3.20   0.96138  3.9080
 2.45000    5.56     3.19   0.96253  3.9085
 2.40000    5.55     3.19   0.96189  3.9085
 2.35000    5.56     3.20   0.96179  3.9085
 2.30000    5.56     3.19   0.96283  3.9080
 2.25000    5.56     3.20   0.96300  3.9080
 2.20000    5.56     3.20   0.96283  3.9077
 2.15000    5.57     3.19   0.96242  3.9075
 2.10000    5.57     3.19   0.96321  3.9075
 2.05000    5.57     3.19   0.96234  3.9075
 2.00000    5.57     3.20   0.96243  3.9075
 1.95000    5.58     3.19   0.96132  3.9070
 1.90000    5.59     3.20   0.96107  3.9070
 1.85000    5.59     3.20   0.96125  3.9070
 1.80000    5.59     3.21   0.96088  3.9070
 1.75000    5.60     3.20   0.95999  3.9072
 1.70000    5.61     3.20   0.96127  3.9075
 1.65000    5.61     3.20   0.96115  3.9080
 1.60000    5.61     3.20   0.96141  3.9080
 1.55000    5.61     3.21   0.96096  3.9070
 1.50000    5.61     3.19   0.96162  3.9075
 1.45000    5.60     3.19   0.96176  3.9075
 1.40000    5.60     3.19   0.96191  3.9080
 1.35000    5.59     3.20   0.96309  3.9080
 1.30000    5.58     3.19   0.96271  3.9080
 1.25000    5.58     3.18   0.96317  3.9080
 1.20000    5.57     3.19   0.96306  3.9080
 1.15000    5.55     3.18   0.96398  3.9080
 1.10000    5.53     3.19   0.96370  3.9080
 1.05000    5.52     3.18   0.96390  3.9080
 1.00000    5.50     3.19   0.96403  3.9080
 0.95000    5.49     3.18   0.96416  3.9080
 0.90000    5.48     3.19   0.96436  3.9080
 0.85000    5.47     3.18   0.96452  3.9080
 0.80000    5.46     3.18   0.96532  3.9080
 0.75000    5.45     3.18   0.96484  3.9080
 0.70000    5.44     3.16   0.96547  3.9080
 0.65000    5.43     3.16   0.96623  3.9080
 0.60000    5.42     3.16   0.96617  3.9080
 0.55000    5.40     3.15   0.96648  3.9080
 0.50000    5.39     3.15   0.96693  3.9080
 0.45000    5.37     3.13   0.96672  3.9080
 0.40000    5.34     3.13   0.96713  3.9080
 0.35000    5.33     3.12   0.96709  3.9080
 0.30000    5.31     3.11   0.96744  3.9080
 0.25000    5.28     3.10   0.96818  3.9080
 0.20000    5.26     3.09   0.96764  3.9085
 0.15000    5.23     3.09   0.96794  3.9085
 0.10000    5.20     3.09   0.96817  3.9085
 0.05000    5.17     3.08   0.96759  3.9085
-0.00000    5.14     3.06   0.96808  3.9085
