 Field[T] Tsmpl[K] Tcntr[K] Signal   Mirror[MM]
 0.00000    4.67     3.10   1.38484  3.9989
 0.05000    4.68     3.10   1.37248  4.0001
 0.10000    4.68     3.11   1.36171  4.0010
 0.15000    4.69     3.10   1.34940  4.0016
 0.20000    4.69     3.11   1.34183  4.0020
 0.25000    4.70     3.13   1.33359  4.0020
 0.30000    4.70     3.13   1.32977  4.0020
 0.35000    4.70     3.13   1.32392  4.0020
 0.40000    4.70     3.14   1.31978  4.0020
 0.45000    4.70     3.14   1.31533  4.0020
 0.50000    4.70     3.14   1.31321  4.0015
 0.55000    4.69     3.15   1.31064  4.0015
 0.60000    4.69     3.16   1.31007  4.0010
 0.65000    4.69     3.16   1.30689  4.0010
 0.70000    4.69     3.18   1.30460  4.0010
 0.75000    4.69     3.16   1.30171  4.0007
 0.80000    4.69     3.17   1.30234  4.0005
 0.85000    4.69     3.17   1.29964  4.0005
 0.90000    4.69     3.18   1.29909  4.0005
 0.95000    4.69     3.16   1.30073  4.0005
 1.00000    4.68     3.17   1.30122  4.0000
 1.05000    4.67     3.18   1.30076  4.0000
 1.10000    4.67     3.18   1.30076  4.0000
 1.15000    4.66     3.18   1.30025  4.0000
 1.20000    4.67     3.18   1.30053  4.0000
 1.25000    4.66     3.18   1.30042  4.0000
 1.30000    4.67     3.20   1.29991  4.0000
 1.35000    4.66     3.19   1.29926  4.0005
 1.40000    4.66     3.19   1.29799  4.0005
 1.45000    4.68     3.19   1.29654  4.0005
 1.50000    4.67     3.19   1.29581  4.0005
 1.55000    4.67     3.21   1.29337  4.0005
 1.60000    4.68     3.19   1.29260  4.0005
 1.65000    4.69     3.20   1.29234  4.0005
 1.70000    4.67     3.19   1.29143  4.0005
 1.75000    4.67     3.20   1.29061  4.0005
 1.80000    4.67     3.19   1.29064  4.0005
 1.85000    4.66     3.20   1.28996  4.0005
 1.90000    4.66     3.21   1.28944  3.9995
 1.95000    4.66     3.20   1.29018  3.9995
 2.00000    4.66     3.20   1.29049  3.9995
 2.05000    4.65     3.18   1.29218  3.9995
 2.10000    4.65     3.19   1.29370  3.9995
 2.15000    4.63     3.19   1.29329  3.9995
 2.20000    4.61     3.19   1.29356  3.9995
 2.25000    4.60     3.19   1.29241  4.0000
 2.30000    4.58     3.19   1.29329  4.0005
 2.35000    4.56     3.20   1.29086  4.0005
 2.40000    4.55     3.19   1.29096  4.0005
 2.45000    4.54     3.20   1.29107  4.0005
 2.50000    4.53     3.19   1.29037  4.0005
 2.55000    4.53     3.20   1.28708  4.0005
 2.60000    4.52     3.20   1.28827  4.0005
 2.65000    4.52     3.19   1.28760  4.0005
 2.70000    4.52     3.21   1.28681  4.0010
 2.75000    4.53     3.20   1.28692  4.0010
 2.80000    4.53     3.20   1.28675  4.0010
 2.85000    4.55     3.19   1.28599  4.0010
 2.90000    4.56     3.20   1.28205  4.0010
 2.95000    4.57     3.21   1.28114  4.0010
 3.00000    4.57     3.20   1.28141  4.0005
 3.05000    4.57     3.22   1.28196  4.0000
 3.10000    4.58     3.20   1.28186  3.9995
 3.15000    4.59     3.20   1.28477  3.9995
 3.20000    4.59     3.22   1.28686  3.9995
 3.25000    4.60     3.20   1.28827  3.9995
 3.30000    4.61     3.20   1.28771  4.0000
 3.35000    4.61     3.21   1.28646  4.0000
 3.40000    4.62     3.20   1.28657  4.0000
 3.45000    4.61     3.21   1.28786  4.0004
 3.50000    4.61     3.21   1.29014  4.0005
 3.55000    4.60     3.21   1.28943  4.0005
 3.60000    4.60     3.20   1.29086  4.0010
 3.65000    4.60     3.21   1.28938  4.0010
 3.70000    4.60     3.21   1.28817  4.0010
 3.75000    4.61     3.21   1.28859  4.0010
 3.80000    4.61     3.21   1.28831  4.0010
 3.85000    4.63     3.21   1.28759  4.0010
 3.90000    4.64     3.21   1.28777  4.0010
 3.95000    4.65     3.21   1.28792  4.0010
 4.00000    4.66     3.21   1.28675  4.0010
 4.05000    4.66     3.22   1.28639  4.0010
 4.10000    4.67     3.21   1.28635  4.0010
 4.15000    4.68     3.21   1.28584  4.0010
 4.20000    4.68     3.22   1.28537  4.0015
 4.25000    4.69     3.21   1.28372  4.0015
 4.30000    4.70     3.22   1.28409  4.0015
 4.35000    4.71     3.22   1.28382  4.0010
 4.40000    4.72     3.23   1.28404  4.0010
 4.45000    4.73     3.22   1.28346  4.0010
 4.50000    4.74     3.22   1.28414  4.0015
 4.55000    4.75     3.23   1.28283  4.0015
 4.60000    4.76     3.22   1.28358  4.0015
 4.65000    4.78     3.23   1.28337  4.0015
 4.70000    4.78     3.23   1.28264  4.0015
 4.75000    4.79     3.23   1.28160  4.0020
 4.80000    4.80     3.24   1.28173  4.0020
 4.85000    4.81     3.23   1.27954  4.0024
 4.90000    4.82     3.22   1.28137  4.0025
 4.95000    4.83     3.24   1.28053  4.0025
 5.00000    4.84     3.24   1.28123  4.0020
 5.05000    4.85     3.24   1.27925  4.0020
 5.10000    4.87     3.24   1.27951  4.0020
 5.15000    4.88     3.25   1.27951  4.0020
 5.20000    4.90     3.25   1.27909  4.0020
 5.25000    4.91     3.25   1.27868  4.0025
 5.30000    4.93     3.24   1.27765  4.0020
 5.35000    4.94     3.26   1.27698  4.0025
 5.40000    4.95     3.26   1.27722  4.0025
 5.45000    4.96     3.25   1.27753  4.0021
 5.50000    4.96     3.26   1.27606  4.0025
 5.55000    4.97     3.26   1.27458  4.0025
 5.60000    4.97     3.26   1.27525  4.0025
 5.65000    4.96     3.26   1.27455  4.0020
 5.70000    4.96     3.25   1.27537  4.0020
 5.75000    4.96     3.25   1.27252  4.0020
 5.80000    4.96     3.24   1.27246  4.0020
 5.85000    4.97     3.25   1.27269  4.0025
 5.90000    4.98     3.25   1.27305  4.0025
 5.95000    4.98     3.24   1.27370  4.0020
 6.00000    4.99     3.24   1.27357  4.0020
 6.05000    4.99     3.25   1.27313  4.0020
 6.10000    5.01     3.26   1.27190  4.0020
 6.15000    5.02     3.25   1.27185  4.0020
 6.20000    5.03     3.26   1.27210  4.0025
 6.25000    5.04     3.25   1.27147  4.0025
 6.30000    5.05     3.25   1.26990  4.0020
 6.35000    5.06     3.24   1.26983  4.0010
 6.40000    5.07     3.25   1.26993  4.0010
 6.45000    5.09     3.25   1.26904  4.0010
 6.50000    5.10     3.26   1.26779  4.0010
 6.55000    5.11     3.24   1.26933  4.0005
 6.60000    5.13     3.25   1.26825  4.0010
 6.65000    5.14     3.25   1.26752  4.0010
 6.70000    5.16     3.25   1.26746  4.0010
 6.75000    5.17     3.25   1.26659  4.0010
 6.80000    5.18     3.24   1.26696  4.0010
 6.85000    5.19     3.25   1.26674  4.0010
 6.90000    5.20     3.24   1.26577  4.0010
 6.95000    5.22     3.24   1.26613  4.0010
 7.00000    5.23     3.25   1.26523  4.0015
