 Field[T] Tsmpl[K] Tcntr[K] Signal
 7.00000    1.84     1.87   0.44330
 6.95000    1.84     1.87   0.43900
 6.90000    1.84     1.87   0.44320
 6.85000    1.84     1.87   0.44750
 6.80000    1.84     1.87   0.44600
 6.75000    1.84     1.87   0.44530
 6.70000    1.84     1.87   0.44800
 6.65000    1.84     1.87   0.44860
 6.60000    1.84     1.87   0.44740
 6.55000    1.84     1.87   0.45050
 6.50000    1.84     1.87   0.45420
 6.45000    1.84     1.86   0.45340
 6.40000    1.84     1.86   0.45410
 6.35000    1.84     1.86   0.45160
 6.30000    1.84     1.86   0.45480
 6.25000    1.84     1.86   0.45320
 6.20000    1.84     1.86   0.45260
 6.15000    1.84     1.86   0.45210
 6.10000    1.84     1.86   0.45220
 6.05000    1.84     1.86   0.45490
 6.00000    1.84     1.86   0.45630
 5.95000    1.84     1.86   0.45410
 5.90000    1.84     1.86   0.45500
 5.85000    1.84     1.86   0.45590
 5.80000    1.84     1.86   0.45490
 5.75000    1.84     1.86   0.45680
 5.70000    1.84     1.86   0.45900
 5.65000    1.84     1.86   0.45750
 5.60000    1.84     1.86   0.45610
 5.55000    1.84     1.86   0.45640
 5.50000    1.84     1.86   0.45940
 5.45000    1.84     1.86   0.46020
 5.40000    1.84     1.86   0.45870
 5.35000    1.84     1.86   0.45700
 5.30000    1.84     1.86   0.45700
 5.25000    1.84     1.86   0.45960
 5.20000    1.84     1.86   0.46050
 5.15000    1.84     1.86   0.45960
 5.10000    1.84     1.86   0.45900
 5.05000    1.84     1.86   0.46080
 5.00000    1.84     1.86   0.45880
 4.95000    1.84     1.85   0.46120
 4.90000    1.84     1.85   0.45960
 4.85000    1.84     1.85   0.46100
 4.80000    1.84     1.85   0.46650
 4.75000    1.84     1.85   0.46150
 4.70000    1.84     1.85   0.45840
 4.65000    1.83     1.85   0.46290
 4.60000    1.83     1.84   0.46040
 4.55000    1.83     1.84   0.46460
 4.50000    1.83     1.84   0.46240
 4.45000    1.83     1.84   0.46100
 4.40000    1.82     1.83   0.46400
 4.35000    1.82     1.83   0.46350
 4.30000    1.82     1.83   0.46420
 4.25000    1.82     1.83   0.46390
 4.20000    1.81     1.83   0.46410
 4.15000    1.81     1.82   0.46520
 4.10000    1.81     1.82   0.46410
 4.05000    1.81     1.82   0.46400
 4.00000    1.80     1.82   0.46270
 3.95000    1.80     1.81   0.46390
 3.90000    1.80     1.81   0.46440
 3.85000    1.80     1.81   0.46330
 3.80000    1.80     1.81   0.46660
 3.75000    1.79     1.81   0.46810
 3.70000    1.79     1.80   0.46580
 3.65000    1.79     1.80   0.46740
 3.60000    1.79     1.80   0.46710
 3.55000    1.79     1.80   0.46800
 3.50000    1.79     1.80   0.46480
 3.45000    1.78     1.80   0.46610
 3.40000    1.78     1.79   0.46870
 3.35000    1.78     1.79   0.46360
 3.30000    1.78     1.79   0.46500
 3.25000    1.78     1.79   0.46590
 3.20000    1.78     1.79   0.46520
 3.15000    1.78     1.79   0.46860
 3.10000    1.77     1.78   0.46690
 3.05000    1.77     1.78   0.46560
 3.00000    1.77     1.78   0.46560
 2.95000    1.77     1.78   0.46660
 2.90000    1.77     1.78   0.46870
 2.85000    1.77     1.78   0.46660
 2.80000    1.77     1.78   0.46300
 2.75000    1.76     1.77   0.46860
 2.70000    1.76     1.77   0.46530
 2.65000    1.76     1.77   0.46560
 2.60000    1.76     1.77   0.46440
 2.55000    1.76     1.77   0.46840
 2.50000    1.76     1.77   0.46750
 2.45000    1.76     1.77   0.46650
 2.40000    1.76     1.77   0.46390
 2.35000    1.75     1.76   0.46190
 2.30000    1.75     1.76   0.46040
 2.25000    1.75     1.76   0.46100
 2.20000    1.75     1.76   0.45860
 2.15000    1.75     1.76   0.46080
 2.10000    1.75     1.76   0.46180
 2.05000    1.75     1.76   0.46000
 2.00000    1.75     1.76   0.45910
 1.95000    1.75     1.76   0.45910
 1.90000    1.74     1.75   0.46050
 1.85000    1.74     1.75   0.45790
 1.80000    1.74     1.75   0.45940
 1.75000    1.74     1.75   0.46020
 1.70000    1.74     1.75   0.46120
 1.65000    1.74     1.75   0.46110
 1.60000    1.74     1.75   0.46140
 1.55000    1.74     1.75   0.46750
 1.50000    1.74     1.75   0.46440
 1.45000    1.73     1.75   0.46420
 1.40000    1.73     1.75   0.46490
 1.35000    1.73     1.75   0.46730
 1.30000    1.73     1.75   0.46960
 1.25000    1.73     1.75   0.46850
 1.20000    1.73     1.74   0.46390
 1.15000    1.73     1.74   0.46200
 1.10000    1.73     1.74   0.46360
 1.05000    1.73     1.74   0.46040
 1.00000    1.73     1.74   0.46190
 0.95000    1.73     1.74   0.45910
 0.90000    1.72     1.74   0.46120
 0.85000    1.72     1.74   0.46280
 0.80000    1.72     1.74   0.46000
 0.75000    1.72     1.74   0.45840
 0.70000    1.72     1.74   0.45670
 0.65000    1.72     1.74   0.45610
 0.60000    1.72     1.74   0.45830
 0.55000    1.72     1.74   0.45790
 0.50000    1.72     1.73   0.46010
 0.45000    1.72     1.73   0.45970
 0.40000    1.72     1.73   0.46260
 0.35000    1.72     1.73   0.45890
 0.30000    1.72     1.73   0.46120
 0.25000    1.72     1.73   0.45950
 0.20000    1.71     1.73   0.46220
 0.15000    1.71     1.73   0.46260
 0.10000    1.71     1.73   0.46040
 0.05000    1.71     1.73   0.45760
-0.00000    1.71     1.73   0.46050
