 Field[T] Tsmpl[K] Tcntr[K] Signal   Mirror[MM]
 0.00000    1.83     1.85   1.25357  7.3969
 0.05000    1.83     1.85   1.25192  7.3975
 0.10000    1.83     1.85   1.24749  7.3980
 0.15000    1.83     1.85   1.24412  7.3988
 0.20000    1.83     1.85   1.24122  7.3994
 0.25000    1.83     1.85   1.23883  7.3998
 0.30000    1.83     1.85   1.23673  7.4000
 0.35000    1.83     1.85   1.23448  7.4003
 0.40000    1.83     1.85   1.23198  7.4006
 0.45000    1.83     1.85   1.22999  7.4010
 0.50000    1.83     1.85   1.22847  7.4013
 0.55000    1.83     1.85   1.22645  7.4014
 0.60000    1.83     1.85   1.22561  7.4018
 0.65000    1.83     1.85   1.22458  7.4018
 0.70000    1.83     1.85   1.22329  7.4019
 0.75000    1.83     1.85   1.22129  7.4023
 0.80000    1.83     1.85   1.22062  7.4024
 0.85000    1.83     1.85   1.21917  7.4026
 0.90000    1.83     1.85   1.21880  7.4026
 0.95000    1.83     1.85   1.21805  7.4028
 1.00000    1.83     1.85   1.21780  7.4029
 1.05000    1.83     1.85   1.21687  7.4031
 1.10000    1.83     1.85   1.21650  7.4031
 1.15000    1.83     1.85   1.21626  7.4029
 1.20000    1.83     1.85   1.21642  7.4030
 1.25000    1.83     1.85   1.21662  7.4028
 1.30000    1.83     1.85   1.21655  7.4031
 1.35000    1.83     1.85   1.21612  7.4030
 1.40000    1.83     1.85   1.21520  7.4031
 1.45000    1.83     1.85   1.21519  7.4033
 1.50000    1.83     1.85   1.21523  7.4034
 1.55000    1.83     1.85   1.21432  7.4038
 1.60000    1.83     1.85   1.21482  7.4049
 1.65000    1.83     1.85   1.21506  7.4047
 1.70000    1.83     1.85   1.21499  7.4047
 1.75000    1.83     1.85   1.21376  7.4052
 1.80000    1.83     1.85   1.21571  7.4048
 1.85000    1.83     1.85   1.21468  7.4045
 1.90000    1.83     1.85   1.21448  7.4044
 1.95000    1.83     1.85   1.21279  7.4043
 2.00000    1.83     1.85   1.21277  7.4040
 2.05000    1.83     1.85   1.21234  7.4042
 2.10000    1.83     1.85   1.21185  7.4043
 2.15000    1.83     1.85   1.21100  7.4041
 2.20000    1.83     1.86   1.21094  7.4042
 2.25000    1.83     1.86   1.21045  7.4039
 2.30000    1.83     1.86   1.21053  7.4039
 2.35000    1.83     1.86   1.21079  7.4036
 2.40000    1.83     1.86   1.21139  7.4035
 2.45000    1.83     1.86   1.21236  7.4036
 2.50000    1.83     1.86   1.21411  7.4035
 2.55000    1.83     1.86   1.21534  7.4035
 2.60000    1.83     1.86   1.21579  7.4037
 2.65000    1.83     1.86   1.21553  7.4043
 2.70000    1.83     1.86   1.21534  7.4043
 2.75000    1.83     1.86   1.21569  7.4043
 2.80000    1.84     1.86   1.21542  7.4043
 2.85000    1.84     1.86   1.21546  7.4042
 2.90000    1.84     1.86   1.21487  7.4042
 2.95000    1.84     1.86   1.21420  7.4042
 3.00000    1.84     1.87   1.21430  7.4042
 3.05000    1.84     1.87   1.21432  7.4041
 3.10000    1.84     1.87   1.21466  7.4039
 3.15000    1.84     1.87   1.21438  7.4042
 3.20000    1.84     1.87   1.21375  7.4044
 3.25000    1.84     1.87   1.21382  7.4046
 3.30000    1.84     1.87   1.21330  7.4048
 3.35000    1.84     1.87   1.21236  7.4047
 3.40000    1.84     1.87   1.21212  7.4046
 3.45000    1.84     1.87   1.21284  7.4047
 3.50000    1.84     1.87   1.21282  7.4047
 3.55000    1.84     1.87   1.21205  7.4048
 3.60000    1.84     1.87   1.21234  7.4048
 3.65000    1.84     1.87   1.21210  7.4046
 3.70000    1.84     1.87   1.21297  7.4044
 3.75000    1.84     1.87   1.21329  7.4042
 3.80000    1.84     1.87   1.21384  7.4041
 3.85000    1.84     1.87   1.21427  7.4041
 3.90000    1.84     1.87   1.21427  7.4046
 3.95000    1.84     1.88   1.21455  7.4046
 4.00000    1.84     1.88   1.21461  7.4047
 4.05000    1.84     1.88   1.21485  7.4046
 4.10000    1.84     1.88   1.21456  7.4046
 4.15000    1.84     1.88   1.21485  7.4048
 4.20000    1.84     1.88   1.21452  7.4047
 4.25000    1.85     1.88   1.21475  7.4049
 4.30000    1.85     1.88   1.21374  7.4050
 4.35000    1.85     1.88   1.21325  7.4050
 4.40000    1.85     1.88   1.21364  7.4049
 4.45000    1.85     1.88   1.21258  7.4053
 4.50000    1.85     1.88   1.21279  7.4051
 4.55000    1.85     1.88   1.21245  7.4051
 4.60000    1.85     1.88   1.21256  7.4052
 4.65000    1.85     1.88   1.21276  7.4052
 4.70000    1.85     1.88   1.21225  7.4052
 4.75000    1.85     1.88   1.21263  7.4052
 4.80000    1.85     1.88   1.21200  7.4053
 4.85000    1.85     1.88   1.21263  7.4050
 4.90000    1.85     1.88   1.21259  7.4052
 4.95000    1.85     1.88   1.21244  7.4055
 5.00000    1.85     1.88   1.21211  7.4056
 5.05000    1.85     1.89   1.21165  7.4055
 5.10000    1.85     1.89   1.21151  7.4056
 5.15000    1.85     1.89   1.21135  7.4057
 5.20000    1.85     1.89   1.21133  7.4058
 5.25000    1.85     1.89   1.21068  7.4059
 5.30000    1.85     1.89   1.21031  7.4058
 5.35000    1.85     1.89   1.21019  7.4058
 5.40000    1.85     1.89   1.20987  7.4057
 5.45000    1.85     1.89   1.20931  7.4056
 5.50000    1.85     1.89   1.20992  7.4054
 5.55000    1.85     1.89   1.20977  7.4056
 5.60000    1.85     1.89   1.20951  7.4054
 5.65000    1.85     1.89   1.20862  7.4056
 5.70000    1.85     1.89   1.20838  7.4058
 5.75000    1.85     1.89   1.20863  7.4057
 5.80000    1.85     1.89   1.20866  7.4055
 5.85000    1.85     1.89   1.20790  7.4055
 5.90000    1.86     1.89   1.20743  7.4057
 5.95000    1.86     1.89   1.20730  7.4056
 6.00000    1.86     1.89   1.20701  7.4057
 6.05000    1.86     1.89   1.20675  7.4055
 6.10000    1.86     1.89   1.20683  7.4059
 6.15000    1.86     1.89   1.20686  7.4056
 6.20000    1.86     1.89   1.20665  7.4055
 6.25000    1.86     1.90   1.20718  7.4057
 6.30000    1.86     1.90   1.20624  7.4057
 6.35000    1.86     1.90   1.20565  7.4056
 6.40000    1.86     1.90   1.20481  7.4055
 6.45000    1.86     1.90   1.20476  7.4056
 6.50000    1.86     1.90   1.20478  7.4056
 6.55000    1.86     1.90   1.20499  7.4058
 6.60000    1.86     1.90   1.20428  7.4057
 6.65000    1.86     1.90   1.20400  7.4059
 6.70000    1.86     1.90   1.20351  7.4062
 6.75000    1.86     1.90   1.20334  7.4061
 6.80000    1.86     1.90   1.20353  7.4061
 6.85000    1.86     1.90   1.19744  7.4072
 6.90000    1.86     1.90   1.20011  7.4064
 6.95000    1.86     1.90   1.20287  7.4059
 7.00000    1.86     1.90   1.20363  7.4060
 7.00000    1.86     1.90   1.20355  7.4061
 6.95000    1.86     1.90   1.20381  7.4061
 6.90000    1.86     1.90   1.20460  7.4061
 6.85000    1.86     1.90   1.20505  7.4058
 6.80000    1.86     1.90   1.20519  7.4056
 6.75000    1.86     1.90   1.20546  7.4060
 6.70000    1.86     1.90   1.20681  7.4056
 6.65000    1.86     1.90   1.20639  7.4055
 6.60000    1.86     1.90   1.20733  7.4055
 6.55000    1.86     1.90   1.20733  7.4054
 6.50000    1.86     1.90   1.20660  7.4052
 6.45000    1.86     1.90   1.20558  7.4058
 6.40000    1.86     1.90   1.20529  7.4061
 6.35000    1.86     1.90   1.20826  7.4058
 6.30000    1.86     1.90   1.20714  7.4055
 6.25000    1.86     1.90   1.20774  7.4057
 6.20000    1.86     1.90   1.20835  7.4057
 6.15000    1.86     1.90   1.20912  7.4060
 6.10000    1.86     1.90   1.21005  7.4059
 6.05000    1.86     1.90   1.21038  7.4060
 6.00000    1.86     1.90   1.21218  7.4059
 5.95000    1.86     1.90   1.21246  7.4057
 5.90000    1.86     1.90   1.20879  7.4066
 5.85000    1.86     1.90   1.21290  7.4068
 5.80000    1.86     1.90   1.21399  7.4062
 5.75000    1.86     1.90   1.21444  7.4059
 5.70000    1.86     1.90   1.21565  7.4060
 5.65000    1.86     1.90   1.21551  7.4061
 5.60000    1.86     1.90   1.21550  7.4061
 5.55000    1.86     1.90   1.21686  7.4058
 5.50000    1.86     1.89   1.21714  7.4058
 5.45000    1.86     1.89   1.21728  7.4055
 5.40000    1.86     1.89   1.21791  7.4057
 5.35000    1.86     1.89   1.21846  7.4055
 5.30000    1.86     1.89   1.21916  7.4054
 5.25000    1.86     1.89   1.21947  7.4054
 5.20000    1.86     1.89   1.21983  7.4053
 5.15000    1.86     1.89   1.22011  7.4055
 5.10000    1.86     1.89   1.22046  7.4054
 5.05000    1.86     1.89   1.22068  7.4056
 5.00000    1.86     1.89   1.22038  7.4067
 4.95000    1.86     1.89   1.22285  7.4062
 4.90000    1.86     1.89   1.22483  7.4052
 4.85000    1.86     1.89   1.22619  7.4054
 4.80000    1.86     1.89   1.22700  7.4055
 4.75000    1.86     1.89   1.22756  7.4053
 4.70000    1.86     1.89   1.22666  7.4051
 4.65000    1.85     1.89   1.22680  7.4054
 4.60000    1.85     1.89   1.22682  7.4051
 4.55000    1.85     1.89   1.22736  7.4053
 4.50000    1.85     1.89   1.22711  7.4046
 4.45000    1.85     1.89   1.22767  7.4048
 4.40000    1.85     1.89   1.22905  7.4049
 4.35000    1.85     1.89   1.22775  7.4049
 4.30000    1.85     1.89   1.22812  7.4050
 4.25000    1.85     1.88   1.22869  7.4049
 4.20000    1.85     1.88   1.22870  7.4049
 4.15000    1.85     1.88   1.22884  7.4047
 4.10000    1.85     1.88   1.22911  7.4045
 4.05000    1.85     1.88   1.23004  7.4043
 4.00000    1.85     1.88   1.22977  7.4044
 3.95000    1.85     1.88   1.23013  7.4046
 3.90000    1.85     1.88   1.23104  7.4043
 3.85000    1.85     1.88   1.23157  7.4042
 3.80000    1.85     1.88   1.23112  7.4040
 3.75000    1.85     1.88   1.23067  7.4040
 3.70000    1.85     1.88   1.23070  7.4040
 3.65000    1.85     1.88   1.23110  7.4040
 3.60000    1.85     1.88   1.23111  7.4041
 3.55000    1.85     1.88   1.23039  7.4042
 3.50000    1.85     1.88   1.23099  7.4044
 3.45000    1.85     1.88   1.23175  7.4043
 3.40000    1.85     1.88   1.23186  7.4046
 3.35000    1.85     1.88   1.23165  7.4044
 3.30000    1.85     1.88   1.23132  7.4045
 3.25000    1.85     1.88   1.23225  7.4045
 3.20000    1.85     1.88   1.23299  7.4044
 3.15000    1.85     1.88   1.23353  7.4043
 3.10000    1.85     1.88   1.23461  7.4042
 3.05000    1.85     1.88   1.23538  7.4041
 3.00000    1.85     1.88   1.23554  7.4041
 2.95000    1.85     1.87   1.23499  7.4041
 2.90000    1.85     1.87   1.23585  7.4041
 2.85000    1.85     1.87   1.23711  7.4040
 2.80000    1.85     1.87   1.23763  7.4038
 2.75000    1.85     1.87   1.23755  7.4038
 2.70000    1.85     1.87   1.23807  7.4037
 2.65000    1.84     1.87   1.23786  7.4036
 2.60000    1.84     1.87   1.23799  7.4037
 2.55000    1.84     1.87   1.23738  7.4033
 2.50000    1.84     1.87   1.23630  7.4031
 2.45000    1.84     1.87   1.23513  7.4035
 2.40000    1.84     1.87   1.23400  7.4037
 2.35000    1.84     1.87   1.23277  7.4040
 2.30000    1.84     1.87   1.23218  7.4044
 2.25000    1.84     1.87   1.23229  7.4043
 2.20000    1.84     1.87   1.23304  7.4044
 2.15000    1.84     1.87   1.23366  7.4045
 2.10000    1.84     1.87   1.23443  7.4046
 2.05000    1.84     1.87   1.23417  7.4047
 2.00000    1.84     1.87   1.23461  7.4047
 1.95000    1.84     1.86   1.23524  7.4047
 1.90000    1.84     1.86   1.23527  7.4048
 1.85000    1.84     1.86   1.23411  7.4047
 1.80000    1.84     1.86   1.23477  7.4049
 1.75000    1.84     1.86   1.23475  7.4046
 1.70000    1.84     1.86   1.23521  7.4048
 1.65000    1.84     1.86   1.23560  7.4046
 1.60000    1.84     1.86   1.23491  7.4048
 1.55000    1.84     1.86   1.23398  7.4048
 1.50000    1.84     1.86   1.23368  7.4050
 1.45000    1.84     1.86   1.23337  7.4049
 1.40000    1.84     1.86   1.23401  7.4047
 1.35000    1.84     1.86   1.23417  7.4048
 1.30000    1.84     1.86   1.23355  7.4048
 1.25000    1.84     1.86   1.23320  7.4050
 1.20000    1.84     1.86   1.23330  7.4050
 1.15000    1.84     1.86   1.23201  7.4051
 1.10000    1.84     1.86   1.23253  7.4049
 1.05000    1.84     1.86   1.23257  7.4049
 1.00000    1.84     1.86   1.23224  7.4050
 0.95000    1.84     1.86   1.23256  7.4049
 0.90000    1.84     1.86   1.23258  7.4049
 0.85000    1.84     1.86   1.23141  7.4052
 0.80000    1.84     1.85   1.23144  7.4054
 0.75000    1.84     1.85   1.23102  7.4057
 0.70000    1.84     1.85   1.23014  7.4056
 0.65000    1.84     1.85   1.23000  7.4058
 0.60000    1.84     1.85   1.22966  7.4063
 0.55000    1.84     1.85   1.22976  7.4060
 0.50000    1.84     1.85   1.22950  7.4066
 0.45000    1.84     1.85   1.22993  7.4065
 0.40000    1.83     1.85   1.23048  7.4065
 0.35000    1.83     1.85   1.23046  7.4065
 0.30000    1.83     1.85   1.23047  7.4065
 0.25000    1.83     1.85   1.23026  7.4067
 0.20000    1.83     1.85   1.23027  7.4066
 0.15000    1.83     1.85   1.23017  7.4067
 0.10000    1.83     1.85   1.23061  7.4068
 0.05000    1.83     1.85   1.23049  7.4069
-0.00000    1.83     1.85   1.23013  7.4071
