 Field[T] Tsmpl[K] Tcntr[K] Signal   Mirror[MM]
 0.00000    1.82     1.84   0.24073  8.8608
 0.05000    1.82     1.84   0.24121  8.8609
 0.10000    1.82     1.84   0.24180  8.8608
 0.15000    1.82     1.84   0.24230  8.8609
 0.20000    1.82     1.84   0.24278  8.8616
 0.25000    1.82     1.84   0.24243  8.8619
 0.30000    1.82     1.84   0.24223  8.8607
 0.35000    1.82     1.84   0.24146  8.8605
 0.40000    1.82     1.84   0.24167  8.8600
 0.45000    1.82     1.84   0.24123  8.8602
 0.50000    1.82     1.84   0.24095  8.8600
 0.55000    1.82     1.84   0.24133  8.8599
 0.60000    1.82     1.84   0.24064  8.8603
 0.65000    1.82     1.84   0.24057  8.8603
 0.70000    1.82     1.84   0.24102  8.8602
 0.75000    1.82     1.84   0.24096  8.8603
 0.80000    1.82     1.84   0.24022  8.8603
 0.85000    1.82     1.84   0.24039  8.8598
 0.90000    1.82     1.84   0.24120  8.8598
 0.95000    1.82     1.84   0.24041  8.8595
 1.00000    1.82     1.84   0.23995  8.8598
 1.05000    1.82     1.84   0.24045  8.8597
 1.10000    1.82     1.84   0.23986  8.8597
 1.15000    1.82     1.84   0.24069  8.8593
 1.20000    1.82     1.84   0.24018  8.8591
 1.25000    1.82     1.84   0.24117  8.8592
 1.30000    1.82     1.84   0.24114  8.8591
 1.35000    1.82     1.84   0.24025  8.8593
 1.40000    1.82     1.84   0.24000  8.8593
 1.45000    1.82     1.84   0.23973  8.8594
 1.50000    1.82     1.84   0.24110  8.8594
 1.55000    1.82     1.84   0.24085  8.8595
 1.60000    1.82     1.84   0.24213  8.8595
 1.65000    1.82     1.84   0.24188  8.8595
 1.70000    1.82     1.84   0.24162  8.8591
 1.75000    1.82     1.85   0.24252  8.8592
 1.80000    1.82     1.85   0.24182  8.8593
 1.85000    1.82     1.85   0.24202  8.8590
 1.90000    1.82     1.85   0.24178  8.8588
 1.95000    1.82     1.85   0.24123  8.8589
 2.00000    1.82     1.85   0.24233  8.8592
 2.05000    1.82     1.85   0.24192  8.8595
 2.10000    1.82     1.85   0.24197  8.8594
 2.15000    1.82     1.85   0.24080  8.8591
 2.20000    1.82     1.85   0.24017  8.8591
 2.25000    1.82     1.85   0.23951  8.8597
 2.30000    1.82     1.85   0.23964  8.8596
 2.35000    1.82     1.85   0.24026  8.8597
 2.40000    1.82     1.85   0.23937  8.8597
 2.45000    1.82     1.85   0.23891  8.8598
 2.50000    1.82     1.85   0.23926  8.8598
 2.55000    1.82     1.85   0.23942  8.8593
 2.60000    1.82     1.85   0.23903  8.8590
 2.65000    1.82     1.85   0.23940  8.8595
 2.70000    1.82     1.85   0.23842  8.8597
 2.75000    1.82     1.85   0.23910  8.8600
 2.80000    1.82     1.85   0.23864  8.8592
 2.85000    1.82     1.85   0.23894  8.8590
 2.90000    1.82     1.85   0.23900  8.8589
 2.95000    1.82     1.86   0.23870  8.8588
 3.00000    1.82     1.86   0.23910  8.8587
 3.05000    1.82     1.86   0.23880  8.8590
 3.10000    1.82     1.86   0.23876  8.8589
 3.15000    1.83     1.86   0.23916  8.8590
 3.20000    1.83     1.86   0.23929  8.8589
 3.25000    1.83     1.86   0.23898  8.8589
 3.30000    1.83     1.86   0.23899  8.8588
 3.35000    1.83     1.86   0.23926  8.8589
 3.40000    1.83     1.86   0.23913  8.8589
 3.45000    1.83     1.86   0.23880  8.8589
 3.50000    1.83     1.86   0.23922  8.8590
 3.55000    1.83     1.86   0.23922  8.8590
 3.60000    1.83     1.86   0.23858  8.8589
 3.65000    1.83     1.86   0.23850  8.8589
 3.70000    1.83     1.86   0.23770  8.8588
 3.75000    1.83     1.86   0.23828  8.8590
 3.80000    1.83     1.86   0.23866  8.8588
 3.85000    1.83     1.86   0.23908  8.8589
 3.90000    1.83     1.86   0.23898  8.8587
 3.95000    1.83     1.86   0.23778  8.8590
 4.00000    1.83     1.87   0.23685  8.8589
 4.05000    1.83     1.87   0.23658  8.8589
 4.10000    1.83     1.87   0.23693  8.8590
 4.15000    1.83     1.87   0.23714  8.8594
 4.20000    1.83     1.87   0.23650  8.8593
 4.25000    1.83     1.87   0.23654  8.8595
 4.30000    1.83     1.87   0.23672  8.8594
 4.35000    1.83     1.87   0.23623  8.8593
 4.40000    1.83     1.87   0.23607  8.8593
 4.45000    1.83     1.87   0.23675  8.8591
 4.50000    1.83     1.87   0.23689  8.8590
 4.55000    1.84     1.87   0.23594  8.8591
 4.60000    1.84     1.87   0.23407  8.8592
 4.65000    1.84     1.87   0.23262  8.8595
 4.70000    1.84     1.87   0.23262  8.8589
 4.75000    1.84     1.87   0.23386  8.8589
 4.80000    1.84     1.88   0.23497  8.8589
 4.85000    1.84     1.88   0.23633  8.8587
 4.90000    1.84     1.88   0.23652  8.8590
 4.95000    1.84     1.88   0.23641  8.8591
 5.00000    1.84     1.88   0.23331  8.8596
 5.05000    1.84     1.88   0.23193  8.8599
 5.10000    1.84     1.88   0.23150  8.8594
 5.15000    1.84     1.88   0.23156  8.8592
 5.20000    1.84     1.88   0.23237  8.8590
 5.25000    1.84     1.88   0.23298  8.8595
 5.30000    1.84     1.88   0.23311  8.8590
 5.35000    1.84     1.88   0.23453  8.8590
 5.40000    1.84     1.88   0.23426  8.8589
 5.45000    1.84     1.88   0.23379  8.8594
 5.50000    1.84     1.88   0.23351  8.8599
 5.55000    1.84     1.88   0.23173  8.8599
 5.60000    1.85     1.88   0.23134  8.8601
 5.65000    1.85     1.89   0.23161  8.8599
 5.70000    1.85     1.89   0.23207  8.8598
 5.75000    1.85     1.89   0.23157  8.8595
 5.80000    1.85     1.89   0.23242  8.8592
 5.85000    1.85     1.89   0.23287  8.8591
 5.90000    1.85     1.89   0.23287  8.8594
 5.95000    1.85     1.89   0.23315  8.8595
 6.00000    1.85     1.89   0.23272  8.8595
 6.05000    1.85     1.89   0.23212  8.8598
 6.10000    1.85     1.89   0.23188  8.8595
 6.15000    1.85     1.89   0.23195  8.8594
 6.20000    1.85     1.89   0.23223  8.8595
 6.25000    1.85     1.89   0.23231  8.8594
 6.30000    1.85     1.89   0.23158  8.8594
 6.35000    1.85     1.89   0.23233  8.8594
 6.40000    1.85     1.90   0.23175  8.8593
 6.45000    1.85     1.90   0.23131  8.8595
 6.50000    1.85     1.90   0.23087  8.8594
 6.55000    1.85     1.90   0.23168  8.8593
 6.60000    1.85     1.90   0.23171  8.8596
 6.65000    1.86     1.90   0.23166  8.8596
 6.70000    1.86     1.90   0.23239  8.8597
 6.75000    1.86     1.90   0.23247  8.8594
 6.80000    1.86     1.90   0.23242  8.8594
 6.85000    1.86     1.90   0.23232  8.8590
 6.90000    1.86     1.90   0.23238  8.8591
 6.95000    1.86     1.90   0.23191  8.8592
 7.00000    1.86     1.90   0.23178  8.8592
 7.00000    1.86     1.90   0.23117  8.8593
 6.95000    1.86     1.90   0.23139  8.8592
 6.90000    1.86     1.90   0.23177  8.8589
 6.85000    1.86     1.90   0.23171  8.8591
 6.80000    1.86     1.90   0.23141  8.8591
 6.75000    1.86     1.90   0.23152  8.8593
 6.70000    1.86     1.90   0.23185  8.8592
 6.65000    1.86     1.90   0.23175  8.8590
 6.60000    1.86     1.90   0.23200  8.8591
 6.55000    1.86     1.90   0.23239  8.8589
 6.50000    1.86     1.90   0.23217  8.8598
 6.45000    1.86     1.90   0.23624  8.8597
 6.40000    1.86     1.90   0.23212  8.8599
 6.35000    1.86     1.90   0.23280  8.8598
 6.30000    1.86     1.90   0.23233  8.8598
 6.25000    1.86     1.90   0.23235  8.8597
 6.20000    1.86     1.90   0.23197  8.8597
 6.15000    1.86     1.90   0.23302  8.8594
 6.10000    1.86     1.90   0.23238  8.8593
 6.05000    1.86     1.90   0.23261  8.8596
 6.00000    1.86     1.90   0.23223  8.8597
 5.95000    1.86     1.90   0.23242  8.8590
 5.90000    1.86     1.90   0.23123  8.8596
 5.85000    1.86     1.90   0.23140  8.8598
 5.80000    1.86     1.90   0.23094  8.8597
 5.75000    1.86     1.90   0.23182  8.8594
 5.70000    1.86     1.90   0.23287  8.8591
 5.65000    1.86     1.90   0.23362  8.8591
 5.60000    1.86     1.90   0.23449  8.8591
 5.55000    1.86     1.90   0.23503  8.8591
 5.50000    1.86     1.90   0.23475  8.8591
 5.45000    1.86     1.90   0.23366  8.8591
 5.40000    1.86     1.90   0.23300  8.8592
 5.35000    1.86     1.90   0.23309  8.8591
 5.30000    1.86     1.89   0.23295  8.8590
 5.25000    1.86     1.89   0.23303  8.8589
 5.20000    1.85     1.89   0.23221  8.8586
 5.15000    1.85     1.89   0.23201  8.8590
 5.10000    1.85     1.89   0.23221  8.8591
 5.05000    1.85     1.89   0.23175  8.8588
 5.00000    1.85     1.89   0.23191  8.8589
 4.95000    1.85     1.89   0.23197  8.8591
 4.90000    1.85     1.89   0.23060  8.8595
 4.85000    1.85     1.89   0.22930  8.8593
 4.80000    1.85     1.89   0.22894  8.8591
 4.75000    1.85     1.89   0.22852  8.8588
 4.70000    1.85     1.89   0.22786  8.8590
 4.65000    1.85     1.89   0.22840  8.8592
 4.60000    1.85     1.89   0.22873  8.8595
 4.55000    1.85     1.89   0.22808  8.8595
 4.50000    1.85     1.89   0.22860  8.8598
 4.45000    1.85     1.89   0.22889  8.8594
 4.40000    1.85     1.89   0.22866  8.8594
 4.35000    1.85     1.89   0.22957  8.8594
 4.30000    1.85     1.89   0.23028  8.8594
 4.25000    1.85     1.89   0.23039  8.8591
 4.20000    1.85     1.89   0.23122  8.8592
 4.15000    1.85     1.89   0.23087  8.8588
 4.10000    1.85     1.89   0.23123  8.8590
 4.05000    1.85     1.89   0.23151  8.8590
 4.00000    1.85     1.89   0.23119  8.8591
 3.95000    1.85     1.89   0.23137  8.8589
 3.90000    1.85     1.88   0.23149  8.8590
 3.85000    1.85     1.88   0.23168  8.8590
 3.80000    1.85     1.88   0.23209  8.8590
 3.75000    1.85     1.88   0.23181  8.8589
 3.70000    1.85     1.88   0.23240  8.8588
 3.65000    1.85     1.88   0.23215  8.8591
 3.60000    1.85     1.88   0.23168  8.8589
 3.55000    1.85     1.88   0.23263  8.8590
 3.50000    1.85     1.88   0.23266  8.8591
 3.45000    1.85     1.88   0.23323  8.8591
 3.40000    1.85     1.88   0.23360  8.8591
 3.35000    1.85     1.88   0.23380  8.8585
 3.30000    1.85     1.88   0.23270  8.8591
 3.25000    1.85     1.88   0.23411  8.8591
 3.20000    1.85     1.88   0.23321  8.8594
 3.15000    1.85     1.88   0.23705  8.8594
 3.10000    1.85     1.88   0.23549  8.8596
 3.05000    1.85     1.88   0.23580  8.8598
 3.00000    1.85     1.88   0.24212  8.8598
 2.95000    1.84     1.88   0.24123  8.8599
 2.90000    1.84     1.88   0.24011  8.8597
 2.85000    1.84     1.88   0.23952  8.8600
 2.80000    1.84     1.88   0.23820  8.8593
 2.75000    1.84     1.88   0.23774  8.8596
 2.70000    1.84     1.88   0.23655  8.8597
 2.65000    1.84     1.87   0.23557  8.8598
 2.60000    1.84     1.87   0.23659  8.8593
 2.55000    1.84     1.87   0.23619  8.8597
 2.50000    1.84     1.87   0.23623  8.8598
 2.45000    1.84     1.87   0.23610  8.8600
 2.40000    1.84     1.87   0.23640  8.8599
 2.35000    1.84     1.87   0.23658  8.8597
 2.30000    1.84     1.87   0.23698  8.8597
 2.25000    1.84     1.87   0.23696  8.8599
 2.20000    1.84     1.87   0.23729  8.8602
 2.15000    1.84     1.87   0.23710  8.8598
 2.10000    1.84     1.87   0.23670  8.8597
 2.05000    1.84     1.87   0.23635  8.8599
 2.00000    1.84     1.87   0.23674  8.8594
 1.95000    1.84     1.87   0.23637  8.8595
 1.90000    1.84     1.87   0.23679  8.8598
 1.85000    1.84     1.87   0.23701  8.8598
 1.80000    1.84     1.87   0.23713  8.8596
 1.75000    1.84     1.87   0.23747  8.8596
 1.70000    1.84     1.87   0.23708  8.8600
 1.65000    1.84     1.87   0.23731  8.8601
 1.60000    1.84     1.87   0.23648  8.8596
 1.55000    1.84     1.86   0.23621  8.8603
 1.50000    1.84     1.86   0.23678  8.8605
 1.45000    1.84     1.86   0.23699  8.8603
 1.40000    1.84     1.86   0.23757  8.8600
 1.35000    1.84     1.86   0.23697  8.8603
 1.30000    1.84     1.86   0.23640  8.8602
 1.25000    1.84     1.86   0.23749  8.8599
 1.20000    1.84     1.86   0.23763  8.8601
 1.15000    1.84     1.86   0.23742  8.8600
 1.10000    1.84     1.86   0.23826  8.8598
 1.05000    1.84     1.86   0.23798  8.8600
 1.00000    1.84     1.86   0.23832  8.8599
 0.95000    1.84     1.86   0.23793  8.8598
 0.90000    1.84     1.86   0.23807  8.8596
 0.85000    1.84     1.86   0.23872  8.8595
 0.80000    1.84     1.86   0.23855  8.8597
 0.75000    1.84     1.86   0.23884  8.8601
 0.70000    1.84     1.86   0.23964  8.8599
 0.65000    1.84     1.86   0.23900  8.8601
 0.60000    1.84     1.86   0.23938  8.8601
 0.55000    1.84     1.86   0.23977  8.8605
 0.50000    1.84     1.86   0.23973  8.8603
 0.45000    1.84     1.86   0.23969  8.8604
 0.40000    1.84     1.86   0.24018  8.8603
 0.35000    1.84     1.86   0.23929  8.8603
 0.30000    1.84     1.86   0.23964  8.8600
 0.25000    1.84     1.86   0.23991  8.8600
 0.20000    1.84     1.86   0.23973  8.8602
 0.15000    1.84     1.86   0.23968  8.8604
 0.10000    1.84     1.86   0.23964  8.8606
 0.05000    1.84     1.86   0.23953  8.8603
-0.00000    1.84     1.86   0.23975  8.8607
