 Field[T] Tsmpl[K] Tcntr[K] Signal   Mirror[MM]
 7.00000    1.86     1.91   1.63519  7.5358
 6.95000    1.86     1.91   1.63357  7.5359
 6.90000    1.86     1.91   1.63140  7.5355
 6.85000    1.86     1.91   1.63068  7.5353
 6.80000    1.86     1.91   1.62973  7.5354
 6.75000    1.86     1.91   1.62876  7.5354
 6.70000    1.86     1.91   1.62620  7.5354
 6.65000    1.86     1.91   1.62456  7.5351
 6.60000    1.86     1.91   1.62471  7.5349
 6.55000    1.86     1.90   1.62373  7.5347
 6.50000    1.86     1.90   1.62330  7.5348
 6.45000    1.86     1.90   1.62321  7.5348
 6.40000    1.86     1.90   1.62324  7.5345
 6.35000    1.86     1.90   1.62226  7.5346
 6.30000    1.86     1.90   1.62180  7.5345
 6.25000    1.86     1.90   1.61917  7.5344
 6.20000    1.86     1.90   1.61877  7.5342
 6.15000    1.86     1.90   1.61906  7.5340
 6.10000    1.86     1.90   1.61959  7.5340
 6.05000    1.86     1.90   1.61892  7.5341
 6.00000    1.86     1.90   1.61805  7.5340
 5.95000    1.86     1.90   1.61857  7.5340
 5.90000    1.86     1.90   1.61771  7.5339
 5.85000    1.86     1.90   1.61717  7.5340
 5.80000    1.86     1.90   1.61645  7.5337
 5.75000    1.86     1.90   1.61704  7.5334
 5.70000    1.86     1.90   1.61756  7.5335
 5.65000    1.86     1.90   1.61782  7.5338
 5.60000    1.86     1.90   1.61783  7.5335
 5.55000    1.86     1.90   1.61790  7.5337
 5.50000    1.86     1.90   1.61557  7.5336
 5.45000    1.86     1.90   1.61592  7.5333
 5.40000    1.86     1.90   1.61635  7.5335
 5.35000    1.86     1.90   1.61697  7.5333
 5.30000    1.86     1.90   1.61662  7.5332
 5.25000    1.86     1.90   1.61636  7.5332
 5.20000    1.86     1.90   1.61623  7.5331
 5.15000    1.86     1.89   1.61723  7.5333
 5.10000    1.86     1.89   1.61605  7.5330
 5.05000    1.86     1.89   1.61492  7.5329
 5.00000    1.86     1.89   1.61540  7.5329
 4.95000    1.86     1.89   1.61579  7.5330
 4.90000    1.86     1.89   1.61619  7.5327
 4.85000    1.86     1.89   1.61630  7.5328
 4.80000    1.86     1.89   1.61682  7.5333
 4.75000    1.86     1.89   1.61770  7.5332
 4.70000    1.86     1.89   1.61518  7.5331
 4.65000    1.86     1.89   1.61510  7.5329
 4.60000    1.86     1.89   1.61515  7.5330
 4.55000    1.86     1.89   1.61605  7.5329
 4.50000    1.86     1.89   1.61629  7.5329
 4.45000    1.86     1.89   1.61707  7.5331
 4.40000    1.85     1.89   1.61675  7.5330
 4.35000    1.85     1.89   1.61672  7.5330
 4.30000    1.85     1.89   1.61721  7.5331
 4.25000    1.85     1.89   1.61745  7.5333
 4.20000    1.85     1.89   1.61744  7.5333
 4.15000    1.85     1.89   1.61868  7.5332
 4.10000    1.85     1.89   1.62020  7.5332
 4.05000    1.85     1.89   1.62082  7.5333
 4.00000    1.85     1.89   1.62123  7.5336
 3.95000    1.85     1.89   1.62187  7.5336
 3.90000    1.85     1.89   1.62310  7.5336
 3.85000    1.85     1.89   1.62406  7.5338
 3.80000    1.85     1.89   1.62421  7.5337
 3.75000    1.85     1.88   1.62434  7.5336
 3.70000    1.85     1.88   1.62297  7.5338
 3.65000    1.85     1.88   1.62156  7.5337
 3.60000    1.85     1.88   1.62035  7.5338
 3.55000    1.85     1.88   1.61823  7.5339
 3.50000    1.85     1.88   1.61671  7.5338
 3.45000    1.85     1.88   1.61562  7.5342
 3.40000    1.85     1.88   1.61402  7.5343
 3.35000    1.85     1.88   1.61419  7.5349
 3.30000    1.85     1.88   1.61603  7.5355
 3.25000    1.85     1.88   1.61650  7.5360
 3.20000    1.85     1.88   1.61715  7.5362
 3.15000    1.85     1.88   1.61893  7.5362
 3.10000    1.85     1.88   1.62090  7.5364
 3.05000    1.85     1.88   1.62125  7.5367
 3.00000    1.85     1.88   1.62572  7.5370
 2.95000    1.85     1.88   1.63047  7.5371
 2.90000    1.85     1.88   1.63374  7.5370
 2.85000    1.85     1.88   1.63386  7.5368
 2.80000    1.85     1.88   1.63431  7.5369
 2.75000    1.85     1.88   1.63810  7.5369
 2.70000    1.85     1.88   1.64179  7.5374
 2.65000    1.85     1.88   1.64502  7.5371
 2.60000    1.85     1.88   1.64876  7.5365
 2.55000    1.85     1.88   1.65139  7.5363
 2.50000    1.85     1.88   1.65299  7.5357
 2.45000    1.85     1.87   1.65239  7.5355
 2.40000    1.85     1.87   1.64956  7.5349
 2.35000    1.85     1.87   1.64729  7.5342
 2.30000    1.85     1.87   1.64163  7.5369
 2.25000    1.85     1.87   1.64734  7.5346
 2.20000    1.85     1.87   1.64632  7.5346
 2.15000    1.85     1.87   1.64564  7.5342
 2.10000    1.85     1.87   1.64588  7.5342
 2.05000    1.85     1.87   1.64496  7.5340
 2.00000    1.85     1.87   1.64417  7.5344
 1.95000    1.85     1.87   1.64608  7.5342
 1.90000    1.85     1.87   1.64554  7.5342
 1.85000    1.85     1.87   1.64485  7.5339
 1.80000    1.84     1.87   1.64609  7.5340
 1.75000    1.84     1.87   1.64524  7.5342
 1.70000    1.84     1.87   1.64803  7.5344
 1.65000    1.84     1.87   1.64777  7.5344
 1.60000    1.84     1.87   1.64526  7.5343
 1.55000    1.84     1.87   1.64864  7.5343
 1.50000    1.84     1.87   1.65024  7.5341
 1.45000    1.84     1.87   1.65138  7.5344
 1.40000    1.84     1.87   1.65118  7.5340
 1.35000    1.84     1.87   1.65088  7.5338
 1.30000    1.84     1.86   1.65009  7.5335
 1.25000    1.84     1.86   1.64870  7.5339
 1.20000    1.84     1.86   1.64770  7.5340
 1.15000    1.84     1.86   1.64817  7.5338
 1.10000    1.84     1.86   1.64930  7.5333
 1.05000    1.84     1.86   1.64994  7.5335
 1.00000    1.84     1.86   1.64992  7.5336
 0.95000    1.84     1.86   1.64933  7.5342
 0.90000    1.84     1.86   1.65017  7.5340
 0.85000    1.84     1.86   1.65213  7.5339
 0.80000    1.84     1.86   1.64981  7.5337
 0.75000    1.84     1.86   1.64987  7.5339
 0.70000    1.84     1.86   1.65109  7.5341
 0.65000    1.84     1.86   1.65084  7.5341
 0.60000    1.84     1.86   1.65132  7.5342
 0.55000    1.84     1.86   1.65215  7.5341
 0.50000    1.84     1.86   1.65173  7.5340
 0.45000    1.84     1.86   1.65058  7.5339
 0.40000    1.84     1.86   1.65073  7.5340
 0.35000    1.84     1.86   1.65085  7.5340
 0.30000    1.84     1.86   1.65142  7.5342
 0.25000    1.84     1.86   1.65241  7.5344
 0.20000    1.84     1.86   1.65162  7.5345
 0.15000    1.84     1.86   1.65251  7.5346
 0.10000    1.84     1.86   1.65341  7.5348
 0.05000    1.84     1.86   1.65350  7.5351
-0.00000    1.84     1.86   1.65326  7.5351
