 Field[T] Tsmpl[K] Tcntr[K] SignalIntensity   Mirror[MM]
 0.00000    5.02     5.02   0.26444  -3.3933
 -0.05000    5.02     5.02   0.26686  -3.3932
 -0.10000    5.02     5.02   0.26968  -3.3944
 -0.15000    5.02     5.02   0.27095  -3.3941
 -0.20000    5.02     5.02   0.27019  -3.3942
 -0.25000    5.02     5.02   0.27011  -3.3943
 -0.30000    5.02     5.02   0.26821  -3.3948
 -0.35000    5.02     5.02   0.26850  -3.3952
 -0.40000    5.02     5.02   0.27159  -3.3955
 -0.45000    5.02     5.02   0.27534  -3.3955
 -0.50000    5.02     5.02   0.27077  -3.3947
 -0.55000    5.02     5.02   0.27056  -3.3961
 -0.60000    5.02     5.02   0.26750  -3.3962
 -0.65000    5.02     5.02   0.26690  -3.3961
 -0.70000    5.02     5.02   0.26751  -3.3959
 -0.75000    5.02     5.02   0.26267  -3.3956
 -0.80000    5.02     5.02   0.27170  -3.3964
 -0.85000    5.02     5.02   0.26704  -3.3968
 -0.90000    5.02     5.02   0.26690  -3.3970
 -0.95000    5.02     5.02   0.26684  -3.3961
 -1.00000    5.02     5.02   0.26846  -3.3956
 -1.05000    5.02     5.02   0.26698  -3.3947
 -1.10000    5.02     5.02   0.26705  -3.3934
 -1.15000    5.02     5.02   0.25968  -3.3910
 -1.20000    5.02     5.02   0.26191  -3.3903
 -1.25000    5.02     5.02   0.26076  -3.3897
 -1.30000    5.02     5.02   0.25540  -3.3918
 -1.35000    5.02     5.02   0.25854  -3.3929
 -1.40000    5.02     5.02   0.26176  -3.3932
 -1.45000    5.02     5.02   0.27024  -3.3923
 -1.50000    5.02     5.02   0.25772  -3.3920
 -1.55000    5.02     5.02   0.25927  -3.3935
 -1.60000    5.02     5.02   0.26373  -3.3969
 -1.65000    5.02     5.02   0.26605  -3.3991
 -1.70000    5.02     5.02   0.27441  -3.3998
 -1.75000    5.02     5.02   0.26737  -3.3978
 -1.80000    5.02     5.02   0.26476  -3.3967
 -1.85000    5.02     5.02   0.26835  -3.3957
 -1.90000    5.02     5.02   0.26450  -3.3938
 -1.95000    5.02     5.02   0.26863  -3.3904
 -2.00000    5.02     5.02   0.26413  -3.3898
 -2.05000    5.02     5.02   0.25903  -3.3914
 -2.10000    5.02     5.02   0.25638  -3.3960
 -2.15000    5.02     5.02   0.26115  -3.3978
 -2.20000    5.02     5.02   0.26106  -3.3947
 -2.25000    5.02     5.02   0.26337  -3.3928
 -2.30000    5.02     5.02   0.25967  -3.3904
 -2.35000    5.02     5.02   0.25919  -3.3902
 -2.40000    5.02     5.02   0.25484  -3.3905
 -2.45000    5.02     5.02   0.25695  -3.3909
 -2.50000    5.02     5.02   0.25706  -3.3912
 -2.55000    5.02     5.02   0.25507  -3.3931
 -2.60000    5.02     5.02   0.25038  -3.3919
 -2.65000    5.02     5.02   0.25216  -3.3933
 -2.70000    5.02     5.02   0.25084  -3.3945
 -2.75000    5.02     5.02   0.25295  -3.3943
 -2.80000    5.02     5.02   0.25167  -3.3952
 -2.85000    5.02     5.02   0.25111  -3.3954
 -2.90000    5.02     5.02   0.25483  -3.3962
 -2.95000    5.02     5.02   0.25031  -3.3975
 -3.00000    5.02     5.02   0.24416  -3.3979
 -3.05000    5.02     5.02   0.24471  -3.3988
 -3.10000    5.02     5.02   0.24560  -3.3995
 -3.15000    5.02     5.02   0.24186  -3.4002
 -3.20000    5.02     5.02   0.24093  -3.4012
 -3.25000    5.02     5.02   0.24244  -3.4027
 -3.30000    5.02     5.02   0.25017  -3.4042
 -3.35000    5.02     5.02   0.24522  -3.4051
 -3.40000    5.02     5.02   0.24379  -3.4063
 -3.45000    5.02     5.02   0.24397  -3.4066
 -3.50000    5.02     5.02   0.25070  -3.4086
 -3.55000    5.02     5.02   0.25155  -3.4095
 -3.60000    5.02     5.02   0.24975  -3.4091
 -3.65000    5.02     5.02   0.25896  -3.4106
 -3.70000    5.02     5.02   0.24978  -3.4103
 -3.75000    5.02     5.02   0.24937  -3.4111
 -3.80000    5.02     5.02   0.25145  -3.4117
 -3.85000    5.02     5.02   0.25711  -3.4119
 -3.90000    5.02     5.02   0.25494  -3.4137
 -3.95000    5.02     5.02   0.25591  -3.4136
 -4.00000    5.02     5.02   0.25985  -3.4135
 -4.05000    5.02     5.02   0.25802  -3.4125
 -4.10000    5.02     5.02   0.26077  -3.4136
 -4.15000    5.02     5.02   0.25733  -3.4139
 -4.20000    5.02     5.02   0.26475  -3.4137
 -4.25000    5.02     5.02   0.26190  -3.4132
 -4.30000    5.02     5.02   0.26184  -3.4133
 -4.35000    5.02     5.02   0.26625  -3.4136
 -4.40000    5.02     5.02   0.26618  -3.4131
 -4.45000    5.02     5.02   0.26644  -3.4132
 -4.50000    5.02     5.02   0.26458  -3.4128
 -4.55000    5.02     5.02   0.26377  -3.4123
 -4.60000    5.02     5.02   0.25841  -3.4116
 -4.65000    5.02     5.02   0.26431  -3.4120
 -4.70000    5.02     5.02   0.26190  -3.4113
 -4.75000    5.02     5.02   0.26950  -3.4124
 -4.80000    5.02     5.02   0.26845  -3.4112
 -4.85000    5.02     5.02   0.26235  -3.4112
 -4.90000    5.02     5.02   0.26688  -3.4114
 -4.95000    5.02     5.02   0.26541  -3.4105
 -5.00000    5.02     5.02   0.26972  -3.4119
 -5.05000    5.02     5.02   0.27267  -3.4108
 -5.10000    5.02     5.02   0.26705  -3.4108
 -5.15000    5.02     5.02   0.27710  -3.4110
 -5.20000    5.02     5.02   0.27038  -3.4106
 -5.25000    5.02     5.02   0.26695  -3.4084
 -5.30000    5.02     5.02   0.27439  -3.4075
 -5.35000    5.02     5.02   0.27035  -3.4087
 -5.40000    5.02     5.02   0.27217  -3.4070
 -5.45000    5.02     5.02   0.26907  -3.4069
 -5.50000    5.02     5.02   0.27608  -3.4069
 -5.55000    5.02     5.02   0.27169  -3.4071
 -5.60000    5.02     5.02   0.27148  -3.4063
 -5.65000    5.02     5.02   0.27461  -3.4070
 -5.70000    5.02     5.02   0.27926  -3.4069
 -5.75000    5.02     5.02   0.27130  -3.4058
 -5.80000    5.02     5.02   0.27686  -3.4065
 -5.85000    5.02     5.02   0.27296  -3.4062
 -5.90000    5.02     5.02   0.26793  -3.4049
 -5.95000    5.02     5.02   0.27214  -3.4053
 -6.00000    5.02     5.02   0.27368  -3.4052
 -6.05000    5.02     5.02   0.27262  -3.4052
 -6.10000    5.02     5.02   0.27106  -3.4046
 -6.15000    5.02     5.02   0.27332  -3.4039
 -6.20000    5.02     5.02   0.27486  -3.4039
 -6.25000    5.02     5.02   0.27684  -3.4024
 -6.30000    5.02     5.02   0.27688  -3.4043
 -6.35000    5.02     5.02   0.26928  -3.4043
 -6.40000    5.02     5.02   0.27801  -3.4043
 -6.45000    5.02     5.02   0.27727  -3.4035
 -6.50000    5.02     5.02   0.28011  -3.4036
 -6.55000    5.02     5.02   0.27762  -3.4041
 -6.60000    5.02     5.02   0.28274  -3.4030
 -6.65000    5.02     5.02   0.28155  -3.4033
 -6.70000    5.02     5.02   0.27407  -3.4025
 -6.75000    5.02     5.02   0.27777  -3.4023
 -6.80000    5.02     5.02   0.27512  -3.4019
 -6.85000    5.02     5.02   0.27914  -3.4022
 -6.90000    5.02     5.02   0.28233  -3.4013
 -6.95000    5.02     5.02   0.27607  -3.4006
 -7.00000    5.02     5.02   0.27772  -3.4009
