 Field[T] Tsmpl[K] Tcntr[K] SignalIntensity
 7.00000    1.88     1.88   0.98763
 6.95000    1.88     1.88   0.97105
 6.90000    1.88     1.88   0.96214
 6.85000    1.88     1.88   0.95629
 6.80000    1.88     1.88   0.95847
 6.75000    1.88     1.88   0.95239
 6.70000    1.88     1.88   0.95324
 6.65000    1.88     1.88   0.95002
 6.60000    1.88     1.88   0.95147
 6.55000    1.88     1.88   0.94842
 6.50000    1.88     1.88   0.94808
 6.45000    1.88     1.88   0.94808
 6.40000    1.88     1.88   0.94767
 6.35000    1.88     1.88   0.94736
 6.30000    1.88     1.88   0.94445
 6.25000    1.88     1.88   0.94005
 6.20000    1.88     1.88   0.94131
 6.15000    1.88     1.88   0.93973
 6.10000    1.88     1.88   0.93722
 6.05000    1.88     1.88   0.93744
 6.00000    1.88     1.88   0.93639
 5.95000    1.88     1.88   0.93487
 5.90000    1.88     1.88   0.93153
 5.85000    1.88     1.88   0.92894
 5.80000    1.88     1.88   0.92625
 5.75000    1.88     1.88   0.92040
 5.70000    1.88     1.88   0.91846
 5.65000    1.88     1.88   0.91522
 5.60000    1.88     1.88   0.91357
 5.55000    1.88     1.88   0.90779
 5.50000    1.88     1.88   0.90288
 5.45000    1.88     1.88   0.89910
 5.40000    1.88     1.88   0.89610
 5.35000    1.88     1.88   0.89356
 5.30000    1.88     1.88   0.88727
 5.25000    1.88     1.88   0.88352
 5.20000    1.88     1.88   0.87599
 5.15000    1.88     1.88   0.87372
 5.10000    1.88     1.88   0.86750
 5.05000    1.88     1.88   0.86261
 5.00000    1.88     1.88   0.85726
 4.95000    1.88     1.88   0.85169
 4.90000    1.88     1.88   0.84364
 4.85000    1.88     1.88   0.84030
 4.80000    1.88     1.88   0.83200
 4.75000    1.88     1.88   0.82875
 4.70000    1.88     1.88   0.81948
 4.65000    1.88     1.88   0.81535
 4.60000    1.88     1.88   0.81014
 4.55000    1.88     1.88   0.80199
 4.50000    1.88     1.88   0.79512
 4.45000    1.88     1.88   0.78899
 4.40000    1.88     1.88   0.78093
 4.35000    1.88     1.88   0.77135
 4.30000    1.88     1.88   0.76230
 4.25000    1.88     1.88   0.75693
 4.20000    1.88     1.88   0.74870
 4.15000    1.88     1.88   0.73975
 4.10000    1.88     1.88   0.73614
 4.05000    1.88     1.88   0.72721
 4.00000    1.88     1.88   0.71980
 3.95000    1.88     1.88   0.71351
 3.90000    1.88     1.88   0.70630
 3.85000    1.88     1.88   0.70386
 3.80000    1.88     1.88   0.69720
 3.75000    1.88     1.88   0.68994
 3.70000    1.88     1.88   0.68476
 3.65000    1.88     1.88   0.68053
 3.60000    1.88     1.88   0.67779
 3.55000    1.88     1.88   0.67525
 3.50000    1.88     1.88   0.67186
 3.45000    1.88     1.88   0.67000
 3.40000    1.88     1.88   0.67116
 3.35000    1.88     1.88   0.66828
 3.30000    1.88     1.88   0.66860
 3.25000    1.88     1.88   0.67070
 3.20000    1.88     1.88   0.67341
 3.15000    1.88     1.88   0.67641
 3.10000    1.88     1.88   0.68263
 3.05000    1.88     1.88   0.68612
 3.00000    1.88     1.88   0.69227
 2.95000    1.88     1.88   0.69766
 2.90000    1.88     1.88   0.70257
 2.85000    1.88     1.88   0.70974
 2.80000    1.88     1.88   0.71591
 2.75000    1.88     1.88   0.72382
 2.70000    1.88     1.88   0.72973
 2.65000    1.88     1.88   0.73493
 2.60000    1.88     1.88   0.74488
 2.55000    1.88     1.88   0.75073
 2.50000    1.88     1.88   0.76051
 2.45000    1.88     1.88   0.76985
 2.40000    1.88     1.88   0.78205
 2.35000    1.88     1.88   0.79371
 2.30000    1.88     1.88   0.80697
 2.25000    1.88     1.88   0.81866
 2.20000    1.88     1.88   0.82672
 2.15000    1.88     1.88   0.83734
 2.10000    1.88     1.88   0.84869
 2.05000    1.88     1.88   0.85799
 2.00000    1.88     1.88   0.86839
 1.95000    1.88     1.88   0.86254
 1.90000    1.88     1.88   0.86251
 1.85000    1.88     1.88   0.86060
 1.80000    1.88     1.88   0.86266
 1.75000    1.88     1.88   0.87159
 1.70000    1.88     1.88   0.87841
 1.65000    1.88     1.88   0.88013
 1.60000    1.88     1.88   0.88226
 1.55000    1.88     1.88   0.89615
 1.50000    1.88     1.88   0.90779
 1.45000    1.88     1.88   0.91643
 1.40000    1.88     1.88   0.92282
 1.35000    1.88     1.88   0.92935
 1.30000    1.88     1.88   0.94518
 1.25000    1.88     1.88   0.95827
 1.20000    1.88     1.88   0.96785
 1.15000    1.88     1.88   0.96969
 1.10000    1.88     1.88   0.96836
 1.05000    1.88     1.88   0.96389
 1.00000    1.88     1.88   0.95851
 0.95000    1.88     1.88   0.95060
 0.90000    1.88     1.88   0.94910
 0.85000    1.88     1.88   0.95007
 0.80000    1.88     1.88   0.95595
 0.75000    1.88     1.88   0.95510
 0.70000    1.88     1.88   0.95837
 0.65000    1.88     1.88   0.96064
 0.60000    1.88     1.88   0.96130
 0.55000    1.88     1.88   0.96481
 0.50000    1.88     1.88   0.96333
 0.45000    1.88     1.88   0.96439
 0.40000    1.88     1.88   0.96718
 0.35000    1.88     1.88   0.96933
 0.30000    1.88     1.88   0.97083
 0.25000    1.88     1.88   0.97262
 0.20000    1.88     1.88   0.97328
 0.15000    1.88     1.88   0.97773
 0.10000    1.88     1.88   0.97937
 0.05000    1.88     1.88   0.98615
 -0.00000    1.88     1.88   0.98509
