 Field[T] Tsmpl[K] Tcntr[K] Signal
 0.00000    5.02     3.21   2.18980
 0.05000    5.02     3.20   2.17950
 0.10000    5.03     3.21   2.17720
 0.15000    5.03     3.20   2.16600
 0.20000    5.03     3.20   2.16470
 0.25000    5.03     3.21   2.16270
 0.30000    5.03     3.19   2.15820
 0.35000    5.02     3.19   2.15480
 0.40000    5.02     3.20   2.15010
 0.45000    5.02     3.19   2.14930
 0.50000    5.02     3.19   2.14870
 0.55000    5.02     3.19   2.14750
 0.60000    5.02     3.19   2.13910
 0.65000    5.01     3.19   2.14370
 0.70000    5.00     3.19   2.13590
 0.75000    4.99     3.20   2.13910
 0.80000    4.98     3.19   2.13740
 0.85000    4.96     3.20   2.13330
 0.90000    4.95     3.19   2.13640
 0.95000    4.94     3.19   2.13260
 1.00000    4.93     3.20   2.13750
 1.05000    4.93     3.20   2.12440
 1.10000    4.92     3.19   2.12540
 1.15000    4.92     3.20   2.12490
 1.20000    4.91     3.20   2.12190
 1.25000    4.91     3.20   2.12380
 1.30000    4.91     3.20   2.11700
 1.35000    4.91     3.19   2.12430
 1.40000    4.91     3.19   2.12820
 1.45000    4.91     3.20   2.13150
 1.50000    4.92     3.19   2.13460
 1.55000    4.93     3.20   2.13560
 1.60000    4.93     3.19   2.14210
 1.65000    4.94     3.20   2.14500
 1.70000    4.95     3.19   2.16170
 1.75000    4.96     3.20   2.16660
 1.80000    4.97     3.19   2.16890
 1.85000    4.98     3.20   2.16170
 1.90000    4.99     3.20   2.15550
 1.95000    5.00     3.20   2.14890
 2.00000    5.01     3.21   2.14910
 2.05000    5.02     3.20   2.14720
 2.10000    5.02     3.20   2.14410
 2.15000    5.03     3.20   2.14840
 2.20000    5.03     3.20   2.14930
 2.25000    5.04     3.19   2.14940
 2.30000    5.05     3.21   2.14060
 2.35000    5.06     3.20   2.13160
 2.40000    5.07     3.21   2.13520
 2.45000    5.08     3.20   2.12820
 2.50000    5.09     3.20   2.11840
 2.55000    5.09     3.20   2.11170
 2.60000    5.09     3.20   2.09720
 2.65000    5.09     3.21   2.08620
 2.70000    5.09     3.19   2.06830
 2.75000    5.09     3.20   2.05440
 2.80000    5.09     3.20   2.03350
 2.85000    5.09     3.19   2.01820
 2.90000    5.10     3.21   1.99690
 2.95000    5.11     3.21   1.98090
 3.00000    5.11     3.20   1.95760
 3.05000    5.12     3.20   1.93910
 3.10000    5.12     3.21   1.91930
 3.15000    5.13     3.20   1.90190
 3.20000    5.13     3.20   1.88190
 3.25000    5.14     3.21   1.86230
 3.30000    5.14     3.21   1.83950
 3.35000    5.16     3.20   1.81670
 3.40000    5.17     3.21   1.79960
 3.45000    5.18     3.21   1.78030
 3.50000    5.20     3.21   1.76070
 3.55000    5.22     3.21   1.74260
 3.60000    5.23     3.21   1.72820
 3.65000    5.25     3.21   1.70770
 3.70000    5.26     3.21   1.69570
 3.75000    5.28     3.20   1.67880
 3.80000    5.30     3.21   1.66990
 3.85000    5.31     3.20   1.66100
 3.90000    5.32     3.21   1.65470
 3.95000    5.33     3.21   1.64480
 4.00000    5.34     3.21   1.63910
 4.05000    5.35     3.21   1.63630
 4.10000    5.36     3.21   1.63020
 4.15000    5.36     3.21   1.63160
 4.20000    5.37     3.20   1.62710
 4.25000    5.37     3.21   1.62820
 4.30000    5.38     3.21   1.62570
 4.35000    5.38     3.21   1.62810
 4.40000    5.38     3.21   1.62850
 4.45000    5.38     3.21   1.63350
 4.50000    5.38     3.21   1.63370
 4.55000    5.38     3.21   1.63830
 4.60000    5.38     3.21   1.64280
 4.65000    5.38     3.21   1.64200
 4.70000    5.39     3.21   1.64900
 4.75000    5.39     3.21   1.65550
 4.80000    5.39     3.20   1.65930
 4.85000    5.40     3.19   1.66680
 4.90000    5.40     3.20   1.67070
 4.95000    5.39     3.20   1.67710
 5.00000    5.40     3.19   1.68360
 5.05000    5.40     3.19   1.69090
 5.10000    5.41     3.21   1.69960
 5.15000    5.41     3.20   1.70350
 5.20000    5.42     3.19   1.70970
 5.25000    5.42     3.20   1.71650
 5.30000    5.42     3.20   1.72340
 5.35000    5.43     3.20   1.73030
 5.40000    5.43     3.20   1.73590
 5.45000    5.43     3.20   1.74000
 5.50000    5.43     3.20   1.74680
 5.55000    5.42     3.21   1.75450
 5.60000    5.43     3.20   1.76070
 5.65000    5.43     3.19   1.76500
 5.70000    5.43     3.20   1.77030
 5.75000    5.43     3.19   1.77780
 5.80000    5.43     3.19   1.78370
 5.85000    5.43     3.19   1.78530
 5.90000    5.44     3.20   1.79350
 5.95000    5.44     3.19   1.79740
 6.00000    5.44     3.20   1.80260
 6.05000    5.44     3.20   1.80990
 6.10000    5.44     3.20   1.81190
 6.15000    5.44     3.19   1.81620
 6.20000    5.44     3.20   1.82200
 6.25000    5.45     3.20   1.82580
 6.30000    5.45     3.21   1.82960
 6.35000    5.46     3.19   1.83350
 6.40000    5.46     3.20   1.83970
 6.45000    5.46     3.20   1.84410
 6.50000    5.47     3.20   1.84570
 6.55000    5.47     3.20   1.84840
 6.60000    5.47     3.20   1.85200
 6.65000    5.48     3.20   1.85800
 6.70000    5.48     3.20   1.85840
 6.75000    5.48     3.21   1.86220
 6.80000    5.48     3.19   1.86420
 6.85000    5.48     3.20   1.86810
 6.90000    5.48     3.19   1.86500
 6.95000    5.48     3.20   1.87520
 7.00000    5.48     3.20   1.87650
