 Field[T] Tsmpl[K] Tcntr[K] SignalIntensity   Mirror[MM]
 0.00000    5.02     5.02   0.92347  -3.5953
 -0.05000    5.02     5.02   0.92128  -3.5958
 -0.10000    5.02     5.02   0.91720  -3.5948
 -0.15000    5.02     5.02   0.91514  -3.5953
 -0.20000    5.02     5.02   0.91353  -3.5958
 -0.25000    5.02     5.02   0.90937  -3.5958
 -0.30000    5.02     5.02   0.90576  -3.5958
 -0.35000    5.02     5.02   0.90740  -3.5953
 -0.40000    5.02     5.02   0.90204  -3.5953
 -0.45000    5.02     5.02   0.90598  -3.5953
 -0.50000    5.02     5.02   0.90640  -3.5953
 -0.55000    5.02     5.02   0.90662  -3.5953
 -0.60000    5.02     5.02   0.90176  -3.5953
 -0.65000    5.02     5.02   0.90626  -3.5953
 -0.70000    5.02     5.02   0.90680  -3.5948
 -0.75000    5.02     5.02   0.90612  -3.5948
 -0.80000    5.02     5.02   0.90186  -3.5948
 -0.85000    5.02     5.02   0.90136  -3.5948
 -0.90000    5.02     5.02   0.90772  -3.5948
 -0.95000    5.02     5.02   0.91020  -3.5948
 -1.00000    5.02     5.02   0.91441  -3.5938
 -1.05000    5.02     5.02   0.91399  -3.5928
 -1.10000    5.02     5.02   0.91418  -3.5918
 -1.15000    5.02     5.02   0.90905  -3.5913
 -1.20000    5.02     5.02   0.90630  -3.5908
 -1.25000    5.02     5.02   0.91102  -3.5903
 -1.30000    5.02     5.02   0.90745  -3.5898
 -1.35000    5.02     5.02   0.90712  -3.5898
 -1.40000    5.02     5.02   0.90933  -3.5898
 -1.45000    5.02     5.02   0.91349  -3.5885
 -1.50000    5.02     5.02   0.91102  -3.5868
 -1.55000    5.02     5.02   0.91052  -3.5858
 -1.60000    5.02     5.02   0.90369  -3.5848
 -1.65000    5.02     5.02   0.89687  -3.5843
 -1.70000    5.02     5.02   0.89183  -3.5843
 -1.75000    5.02     5.02   0.88780  -3.5843
 -1.80000    5.02     5.02   0.88748  -3.5843
 -1.85000    5.02     5.02   0.88771  -3.5846
 -1.90000    5.02     5.02   0.88533  -3.5853
 -1.95000    5.02     5.02   0.88941  -3.5858
 -2.00000    5.02     5.02   0.90301  -3.5858
 -2.05000    5.02     5.02   0.90241  -3.5835
 -2.10000    5.02     5.02   0.90250  -3.5819
 -2.15000    5.02     5.02   0.89581  -3.5805
 -2.20000    5.02     5.02   0.89641  -3.5803
 -2.25000    5.02     5.02   0.89399  -3.5796
 -2.30000    5.02     5.02   0.89916  -3.5783
 -2.35000    5.02     5.02   0.89792  -3.5749
 -2.40000    5.02     5.02   0.89375  -3.5733
 -2.45000    5.02     5.02   0.88314  -3.5718
 -2.50000    5.02     5.02   0.86971  -3.5708
 -2.55000    5.02     5.02   0.86614  -3.5698
 -2.60000    5.02     5.02   0.85437  -3.5688
 -2.65000    5.02     5.02   0.84865  -3.5678
 -2.70000    5.02     5.02   0.84343  -3.5675
 -2.75000    5.02     5.02   0.83486  -3.5668
 -2.80000    5.02     5.02   0.82589  -3.5663
 -2.85000    5.02     5.02   0.81553  -3.5663
 -2.90000    5.02     5.02   0.81059  -3.5658
 -2.95000    5.02     5.02   0.80165  -3.5653
 -3.00000    5.02     5.02   0.79557  -3.5652
 -3.05000    5.02     5.02   0.78014  -3.5653
 -3.10000    5.02     5.02   0.77341  -3.5653
 -3.15000    5.02     5.02   0.76750  -3.5658
 -3.20000    5.02     5.02   0.75852  -3.5653
 -3.25000    5.02     5.02   0.74922  -3.5658
 -3.30000    5.02     5.02   0.73667  -3.5663
 -3.35000    5.02     5.02   0.72888  -3.5673
 -3.40000    5.02     5.02   0.72348  -3.5688
 -3.45000    5.02     5.02   0.71593  -3.5698
 -3.50000    5.02     5.02   0.70751  -3.5717
 -3.55000    5.02     5.02   0.70004  -3.5737
 -3.60000    5.02     5.02   0.69710  -3.5751
 -3.65000    5.02     5.02   0.69234  -3.5768
 -3.70000    5.02     5.02   0.68483  -3.5793
 -3.75000    5.02     5.02   0.68154  -3.5808
 -3.80000    5.02     5.02   0.67718  -3.5828
 -3.85000    5.02     5.02   0.67591  -3.5848
 -3.90000    5.02     5.02   0.67553  -3.5868
 -3.95000    5.02     5.02   0.67471  -3.5888
 -4.00000    5.02     5.02   0.67659  -3.5900
 -4.05000    5.02     5.02   0.67471  -3.5927
 -4.10000    5.02     5.02   0.67517  -3.5953
 -4.15000    5.02     5.02   0.68122  -3.5968
 -4.20000    5.02     5.02   0.67678  -3.5978
 -4.25000    5.02     5.02   0.67925  -3.5996
 -4.30000    5.02     5.02   0.68017  -3.6008
 -4.35000    5.02     5.02   0.68593  -3.6023
 -4.40000    5.02     5.02   0.68868  -3.6038
 -4.45000    5.02     5.02   0.68841  -3.6053
 -4.50000    5.02     5.02   0.69142  -3.6066
 -4.55000    5.02     5.02   0.69646  -3.6078
 -4.60000    5.02     5.02   0.69843  -3.6088
 -4.65000    5.02     5.02   0.70128  -3.6098
 -4.70000    5.02     5.02   0.70210  -3.6108
 -4.75000    5.02     5.02   0.70626  -3.6117
 -4.80000    5.02     5.02   0.70952  -3.6123
 -4.85000    5.02     5.02   0.71625  -3.6128
 -4.90000    5.02     5.02   0.71776  -3.6133
 -4.95000    5.02     5.02   0.72189  -3.6148
 -5.00000    5.02     5.02   0.72793  -3.6153
 -5.05000    5.02     5.02   0.72545  -3.6163
 -5.10000    5.02     5.02   0.73260  -3.6163
 -5.15000    5.02     5.02   0.73448  -3.6168
 -5.20000    5.02     5.02   0.74180  -3.6173
 -5.25000    5.02     5.02   0.74071  -3.6178
 -5.30000    5.02     5.02   0.74680  -3.6178
 -5.35000    5.02     5.02   0.74987  -3.6183
 -5.40000    5.02     5.02   0.75394  -3.6183
 -5.45000    5.02     5.02   0.75399  -3.6188
 -5.50000    5.02     5.02   0.75083  -3.6188
 -5.55000    5.02     5.02   0.75756  -3.6188
 -5.60000    5.02     5.02   0.75829  -3.6188
 -5.65000    5.02     5.02   0.76731  -3.6183
 -5.70000    5.02     5.02   0.76544  -3.6183
 -5.75000    5.02     5.02   0.77034  -3.6181
 -5.80000    5.02     5.02   0.77198  -3.6183
 -5.85000    5.02     5.02   0.77459  -3.6188
 -5.90000    5.02     5.02   0.77785  -3.6188
 -5.95000    5.02     5.02   0.78009  -3.6188
 -6.00000    5.02     5.02   0.78842  -3.6188
 -6.05000    5.02     5.02   0.78540  -3.6188
 -6.10000    5.02     5.02   0.78938  -3.6183
 -6.15000    5.02     5.02   0.79217  -3.6178
 -6.20000    5.02     5.02   0.79456  -3.6178
 -6.25000    5.02     5.02   0.80185  -3.6173
 -6.30000    5.02     5.02   0.80382  -3.6173
 -6.35000    5.02     5.02   0.80477  -3.6168
 -6.40000    5.02     5.02   0.80088  -3.6168
 -6.45000    5.02     5.02   0.80757  -3.6163
 -6.50000    5.02     5.02   0.80743  -3.6163
 -6.55000    5.02     5.02   0.81059  -3.6163
 -6.60000    5.02     5.02   0.81081  -3.6163
 -6.65000    5.02     5.02   0.81481  -3.6168
 -6.70000    5.02     5.02   0.81521  -3.6163
 -6.75000    5.02     5.02   0.81242  -3.6158
 -6.80000    5.02     5.02   0.81613  -3.6158
 -6.85000    5.02     5.02   0.81879  -3.6153
 -6.90000    5.02     5.02   0.82154  -3.6146
 -6.95000    5.02     5.02   0.81883  -3.6138
 -7.00000    5.02     5.02   0.81933  -3.6148
