 Field[T] Tsmpl[K] Tcntr[K] Signal   Mirror[MM]
-5.00000    6.12     3.20   1.23351  3.9477
-4.95000    6.13     3.20   1.23200  3.9485
-4.90000    6.13     3.21   1.23304  3.9490
-4.85000    6.14     3.20   1.22841  3.9490
-4.80000    6.15     3.21   1.23038  3.9500
-4.75000    6.16     3.20   1.22770  3.9510
-4.70000    6.17     3.21   1.22404  3.9510
-4.65000    6.18     3.20   1.22705  3.9512
-4.60000    6.20     3.21   1.22573  3.9510
-4.55000    6.21     3.21   1.22619  3.9525
-4.50000    6.22     3.21   1.22534  3.9530
-4.45000    6.23     3.21   1.22765  3.9535
-4.40000    6.24     3.21   1.22953  3.9540
-4.35000    6.25     3.20   1.22903  3.9545
-4.30000    6.26     3.20   1.22752  3.9545
-4.25000    6.27     3.22   1.23136  3.9555
-4.20000    6.28     3.20   1.23171  3.9555
-4.15000    6.29     3.21   1.23259  3.9560
-4.10000    6.30     3.21   1.23507  3.9565
-4.05000    6.31     3.21   1.23419  3.9565
-4.00000    6.31     3.21   1.23569  3.9570
-3.95000    6.32     3.19   1.24014  3.9574
-3.90000    6.32     3.20   1.24070  3.9575
-3.85000    6.33     3.21   1.24363  3.9578
-3.80000    6.33     3.20   1.24710  3.9580
-3.75000    6.33     3.20   1.25110  3.9580
-3.70000    6.34     3.20   1.25243  3.9575
-3.65000    6.34     3.20   1.25625  3.9570
-3.60000    6.34     3.20   1.25775  3.9570
-3.55000    6.34     3.21   1.25680  3.9570
-3.50000    6.34     3.20   1.25868  3.9565
-3.45000    6.34     3.20   1.26205  3.9560
-3.40000    6.34     3.21   1.26473  3.9560
-3.35000    6.35     3.20   1.26378  3.9552
-3.30000    6.35     3.21   1.26297  3.9552
-3.25000    6.35     3.19   1.26340  3.9545
-3.20000    6.35     3.20   1.26459  3.9541
-3.15000    6.35     3.21   1.26337  3.9535
-3.10000    6.35     3.20   1.26475  3.9535
-3.05000    6.35     3.19   1.26551  3.9540
-3.00000    6.35     3.19   1.26605  3.9535
-2.95000    6.35     3.20   1.26740  3.9530
-2.90000    6.34     3.20   1.26865  3.9530
-2.85000    6.34     3.20   1.27306  3.9531
-2.80000    6.34     3.20   1.27273  3.9520
-2.75000    6.34     3.20   1.27465  3.9515
-2.70000    6.33     3.20   1.27412  3.9510
-2.65000    6.33     3.20   1.27248  3.9510
-2.60000    6.32     3.19   1.27458  3.9518
-2.55000    6.32     3.20   1.28133  3.9510
-2.50000    6.32     3.21   1.28283  3.9495
-2.45000    6.31     3.20   1.28573  3.9480
-2.40000    6.30     3.20   1.28739  3.9465
-2.35000    6.30     3.19   1.28439  3.9440
-2.30000    6.29     3.19   1.27597  3.9425
-2.25000    6.29     3.20   1.27062  3.9415
-2.20000    6.28     3.19   1.26522  3.9415
-2.15000    6.26     3.19   1.26229  3.9425
-2.10000    6.25     3.19   1.25844  3.9434
-2.05000    6.23     3.19   1.25513  3.9442
-2.00000    6.22     3.19   1.25811  3.9443
-1.95000    6.20     3.19   1.26072  3.9445
-1.90000    6.19     3.19   1.25968  3.9440
-1.85000    6.18     3.20   1.25927  3.9440
-1.80000    6.16     3.20   1.25926  3.9440
-1.75000    6.15     3.19   1.25751  3.9440
-1.70000    6.13     3.19   1.25821  3.9440
-1.65000    6.11     3.19   1.26003  3.9430
-1.60000    6.09     3.19   1.25966  3.9420
-1.55000    6.07     3.19   1.25795  3.9415
-1.50000    6.04     3.18   1.25709  3.9410
-1.45000    6.01     3.18   1.25379  3.9400
-1.40000    5.97     3.18   1.25087  3.9405
-1.35000    5.94     3.18   1.24463  3.9400
-1.30000    5.91     3.18   1.24253  3.9403
-1.25000    5.88     3.18   1.23863  3.9419
-1.20000    5.85     3.19   1.23739  3.9431
-1.15000    5.83     3.18   1.23655  3.9444
-1.10000    5.81     3.18   1.23462  3.9446
-1.05000    5.79     3.18   1.23836  3.9452
-1.00000    5.77     3.17   1.23874  3.9455
-0.95000    5.75     3.20   1.24017  3.9450
-0.90000    5.73     3.19   1.24212  3.9445
-0.85000    5.71     3.18   1.24294  3.9446
-0.80000    5.69     3.19   1.24413  3.9445
-0.75000    5.68     3.19   1.24592  3.9445
-0.70000    5.66     3.19   1.24581  3.9435
-0.65000    5.65     3.19   1.24558  3.9430
-0.60000    5.64     3.19   1.24679  3.9430
-0.55000    5.62     3.18   1.24629  3.9421
-0.50000    5.61     3.18   1.24578  3.9415
-0.45000    5.60     3.19   1.24535  3.9420
-0.40000    5.59     3.18   1.24651  3.9420
-0.35000    5.57     3.20   1.24538  3.9420
-0.30000    5.56     3.19   1.24331  3.9430
-0.25000    5.55     3.19   1.24450  3.9420
-0.20000    5.53     3.19   1.24567  3.9425
-0.15000    5.52     3.19   1.24530  3.9420
-0.10000    5.51     3.19   1.24420  3.9405
-0.05000    5.51     3.18   1.24242  3.9406
 0.00000    5.50     3.18   1.24469  3.9406
