 Field[T] Tsmpl[K] Tcntr[K] SignalIntensity
 0.00000    1.87     1.87   0.98697
 0.05000    1.87     1.87   0.98517
 0.10000    1.87     1.87   0.98569
 0.15000    1.87     1.87   0.98158
 0.20000    1.87     1.87   0.97727
 0.25000    1.87     1.87   0.97555
 0.30000    1.87     1.87   0.97317
 0.35000    1.87     1.87   0.97132
 0.40000    1.87     1.87   0.96674
 0.45000    1.87     1.87   0.96600
 0.50000    1.87     1.87   0.96413
 0.55000    1.87     1.87   0.96182
 0.60000    1.87     1.87   0.95915
 0.65000    1.87     1.87   0.95689
 0.70000    1.87     1.87   0.95439
 0.75000    1.87     1.87   0.94988
 0.80000    1.87     1.87   0.94236
 0.85000    1.87     1.87   0.93104
 0.90000    1.87     1.87   0.91833
 0.95000    1.87     1.87   0.90844
 1.00000    1.87     1.87   0.90036
 1.05000    1.87     1.87   0.89638
 1.10000    1.87     1.87   0.89085
 1.15000    1.87     1.87   0.88625
 1.20000    1.87     1.87   0.87774
 1.25000    1.87     1.87   0.87127
 1.30000    1.87     1.87   0.87435
 1.35000    1.87     1.87   0.87358
 1.40000    1.87     1.87   0.86656
 1.45000    1.87     1.87   0.86546
 1.50000    1.87     1.87   0.86136
 1.55000    1.87     1.87   0.85555
 1.60000    1.87     1.87   0.84808
 1.65000    1.87     1.87   0.83745
 1.70000    1.87     1.87   0.82428
 1.75000    1.87     1.87   0.80842
 1.80000    1.87     1.87   0.79215
 1.85000    1.87     1.87   0.77487
 1.90000    1.87     1.87   0.75920
 1.95000    1.87     1.87   0.74598
 2.00000    1.87     1.87   0.73077
 2.05000    1.87     1.87   0.71751
 2.10000    1.87     1.87   0.70590
 2.15000    1.87     1.87   0.69765
 2.20000    1.87     1.87   0.69030
 2.25000    1.87     1.87   0.68472
 2.30000    1.87     1.87   0.68169
 2.35000    1.87     1.87   0.67847
 2.40000    1.87     1.87   0.67823
 2.45000    1.87     1.87   0.67914
 2.50000    1.87     1.87   0.68197
 2.55000    1.87     1.87   0.68570
 2.60000    1.87     1.87   0.68936
 2.65000    1.87     1.87   0.69334
 2.70000    1.87     1.87   0.69854
 2.75000    1.87     1.87   0.70426
 2.80000    1.87     1.87   0.71105
 2.85000    1.87     1.87   0.71666
 2.90000    1.87     1.87   0.72306
 2.95000    1.87     1.87   0.73077
 3.00000    1.87     1.87   0.73711
 3.05000    1.87     1.87   0.74326
 3.10000    1.87     1.87   0.75016
 3.15000    1.87     1.87   0.75582
 3.20000    1.87     1.87   0.76163
 3.25000    1.87     1.87   0.76732
 3.30000    1.87     1.87   0.77077
 3.35000    1.87     1.87   0.77506
 3.40000    1.87     1.87   0.78079
 3.45000    1.87     1.87   0.78386
 3.50000    1.87     1.87   0.78837
 3.55000    1.87     1.87   0.79354
 3.60000    1.87     1.87   0.79565
 3.65000    1.87     1.87   0.79944
 3.70000    1.87     1.87   0.80433
 3.75000    1.87     1.87   0.80778
 3.80000    1.87     1.87   0.81025
 3.85000    1.87     1.87   0.81310
 3.90000    1.87     1.87   0.81679
 3.95000    1.87     1.87   0.81859
 4.00000    1.87     1.87   0.82194
 4.05000    1.87     1.87   0.82328
 4.10000    1.87     1.87   0.82496
 4.15000    1.87     1.87   0.82698
 4.20000    1.87     1.87   0.82771
 4.25000    1.87     1.87   0.82925
 4.30000    1.87     1.87   0.83149
 4.35000    1.87     1.87   0.83345
 4.40000    1.87     1.87   0.83482
 4.45000    1.87     1.87   0.83439
 4.50000    1.87     1.87   0.83503
 4.55000    1.87     1.87   0.83742
 4.60000    1.87     1.87   0.83687
 4.65000    1.87     1.87   0.83728
 4.70000    1.87     1.87   0.83951
 4.75000    1.87     1.87   0.83925
 4.80000    1.87     1.87   0.83810
 4.85000    1.87     1.87   0.83794
 4.90000    1.87     1.87   0.83972
 4.95000    1.87     1.87   0.83976
 5.00000    1.87     1.87   0.84037
 5.05000    1.87     1.87   0.84019
 5.10000    1.87     1.87   0.84005
 5.15000    1.87     1.87   0.84100
 5.20000    1.87     1.87   0.83946
 5.25000    1.87     1.87   0.84037
 5.30000    1.87     1.87   0.83953
 5.35000    1.87     1.87   0.83989
 5.40000    1.87     1.87   0.83987
 5.45000    1.87     1.87   0.83878
 5.50000    1.87     1.87   0.83907
 5.55000    1.87     1.87   0.83949
 5.60000    1.87     1.87   0.83907
 5.65000    1.87     1.87   0.83876
 5.70000    1.87     1.87   0.83730
 5.75000    1.87     1.87   0.83741
 5.80000    1.87     1.87   0.83802
 5.85000    1.87     1.87   0.83759
 5.90000    1.87     1.87   0.83797
 5.95000    1.87     1.87   0.84009
 6.00000    1.87     1.87   0.83925
 6.05000    1.87     1.87   0.83745
 6.10000    1.87     1.87   0.83789
 6.15000    1.87     1.87   0.83895
 6.20000    1.87     1.87   0.83895
 6.25000    1.87     1.87   0.83632
 6.30000    1.87     1.87   0.83629
 6.35000    1.87     1.87   0.83414
 6.40000    1.87     1.87   0.83446
 6.45000    1.87     1.87   0.83465
 6.50000    1.87     1.87   0.83516
 6.55000    1.87     1.87   0.83442
 6.60000    1.87     1.87   0.83403
 6.65000    1.87     1.87   0.83323
 6.70000    1.87     1.87   0.83246
 6.75000    1.87     1.87   0.83208
 6.80000    1.87     1.87   0.83159
 6.85000    1.87     1.87   0.83062
 6.90000    1.87     1.87   0.83001
 6.95000    1.87     1.87   0.82770
 7.00000    1.87     1.87   0.82895
