 Field[T] Tsmpl[K] Tcntr[K] SignalIntensity
 7.00000    1.88     1.88   0.99070
 6.95000    1.88     1.88   0.99214
 6.90000    1.88     1.88   0.98986
 6.85000    1.88     1.88   0.99116
 6.80000    1.88     1.88   0.99306
 6.75000    1.88     1.88   0.99438
 6.70000    1.88     1.88   0.99157
 6.65000    1.88     1.88   0.99569
 6.60000    1.88     1.88   0.99411
 6.55000    1.88     1.88   0.99328
 6.50000    1.88     1.88   0.99560
 6.45000    1.88     1.88   0.99574
 6.40000    1.88     1.88   0.99729
 6.35000    1.88     1.88   0.99338
 6.30000    1.88     1.88   0.99449
 6.25000    1.88     1.88   0.99483
 6.20000    1.88     1.88   0.99360
 6.15000    1.88     1.88   0.99267
 6.10000    1.88     1.88   0.99277
 6.05000    1.88     1.88   0.99484
 6.00000    1.88     1.88   0.99615
 5.95000    1.88     1.88   0.99494
 5.90000    1.88     1.88   0.99326
 5.85000    1.88     1.88   0.99372
 5.80000    1.88     1.88   0.99219
 5.75000    1.88     1.88   0.99248
 5.70000    1.88     1.88   0.99066
 5.65000    1.88     1.88   0.99126
 5.60000    1.88     1.88   0.99051
 5.55000    1.88     1.88   0.98852
 5.50000    1.88     1.88   0.98724
 5.45000    1.88     1.88   0.98611
 5.40000    1.88     1.88   0.98614
 5.35000    1.88     1.88   0.98592
 5.30000    1.88     1.88   0.98353
 5.25000    1.88     1.88   0.98397
 5.20000    1.88     1.88   0.98395
 5.15000    1.88     1.88   0.98195
 5.10000    1.88     1.88   0.98104
 5.05000    1.88     1.88   0.98081
 5.00000    1.88     1.88   0.97858
 4.95000    1.88     1.88   0.97690
 4.90000    1.88     1.88   0.97336
 4.85000    1.88     1.88   0.97192
 4.80000    1.88     1.88   0.96975
 4.75000    1.88     1.88   0.96863
 4.70000    1.88     1.88   0.96538
 4.65000    1.88     1.88   0.96279
 4.60000    1.88     1.88   0.95923
 4.55000    1.88     1.88   0.95821
 4.50000    1.88     1.88   0.95343
 4.45000    1.88     1.88   0.94951
 4.40000    1.88     1.88   0.94539
 4.35000    1.88     1.88   0.93934
 4.30000    1.88     1.88   0.93680
 4.25000    1.88     1.88   0.93251
 4.20000    1.88     1.88   0.92527
 4.15000    1.88     1.88   0.92084
 4.10000    1.88     1.88   0.91359
 4.05000    1.88     1.88   0.91097
 4.00000    1.88     1.88   0.90479
 3.95000    1.88     1.88   0.89832
 3.90000    1.88     1.88   0.89078
 3.85000    1.88     1.88   0.88434
 3.80000    1.88     1.88   0.87589
 3.75000    1.88     1.88   0.86987
 3.70000    1.88     1.88   0.86075
 3.65000    1.88     1.88   0.85227
 3.60000    1.88     1.88   0.84383
 3.55000    1.88     1.88   0.83484
 3.50000    1.88     1.88   0.82572
 3.45000    1.88     1.88   0.81523
 3.40000    1.88     1.88   0.80736
 3.35000    1.88     1.88   0.79689
 3.30000    1.88     1.88   0.78570
 3.25000    1.88     1.88   0.77597
 3.20000    1.88     1.88   0.76595
 3.15000    1.88     1.88   0.75793
 3.10000    1.88     1.88   0.74768
 3.05000    1.88     1.88   0.73677
 3.00000    1.88     1.88   0.73050
 2.95000    1.88     1.88   0.72162
 2.90000    1.88     1.88   0.71197
 2.85000    1.88     1.88   0.70619
 2.80000    1.88     1.88   0.69968
 2.75000    1.88     1.88   0.69329
 2.70000    1.88     1.88   0.69035
 2.65000    1.88     1.88   0.68480
 2.60000    1.88     1.88   0.68415
 2.55000    1.88     1.88   0.68249
 2.50000    1.88     1.88   0.68424
 2.45000    1.88     1.88   0.68810
 2.40000    1.88     1.88   0.69496
 2.35000    1.88     1.88   0.70398
 2.30000    1.88     1.88   0.71219
 2.25000    1.88     1.88   0.72522
 2.20000    1.88     1.88   0.73947
 2.15000    1.88     1.88   0.75453
 2.10000    1.88     1.88   0.77146
 2.05000    1.88     1.88   0.78869
 2.00000    1.88     1.88   0.80884
 1.95000    1.88     1.88   0.82737
 1.90000    1.88     1.88   0.84692
 1.85000    1.88     1.88   0.86818
 1.80000    1.88     1.88   0.88709
 1.75000    1.88     1.88   0.90930
 1.70000    1.88     1.88   0.92994
 1.65000    1.88     1.88   0.94805
 1.60000    1.88     1.88   0.96618
 1.55000    1.88     1.88   0.98067
 1.50000    1.88     1.88   0.98828
 1.45000    1.88     1.88   0.99577
 1.40000    1.88     1.88   1.00444
 1.35000    1.88     1.88   1.01103
 1.30000    1.88     1.88   1.01702
 1.25000    1.88     1.88   1.01642
 1.20000    1.88     1.88   1.01706
 1.15000    1.88     1.88   1.01818
 1.10000    1.88     1.88   1.01781
 1.05000    1.88     1.88   1.01716
 1.00000    1.88     1.88   1.01587
 0.95000    1.88     1.88   1.01370
 0.90000    1.88     1.88   1.01404
 0.85000    1.88     1.88   1.01228
 0.80000    1.88     1.88   1.01013
 0.75000    1.88     1.88   1.01130
 0.70000    1.88     1.88   1.01378
 0.65000    1.88     1.88   1.01202
 0.60000    1.88     1.88   1.01416
 0.55000    1.88     1.88   1.01340
 0.50000    1.88     1.88   1.01146
 0.45000    1.88     1.88   1.00961
 0.40000    1.88     1.88   1.01234
 0.35000    1.88     1.88   1.01088
 0.30000    1.88     1.88   1.00791
 0.25000    1.88     1.88   1.00885
 0.20000    1.88     1.88   1.00718
 0.15000    1.88     1.88   1.00444
 0.10000    1.88     1.88   1.00528
 0.05000    1.88     1.88   1.00438
 -0.00000    1.88     1.88   1.00446
