 Field[T] Tsmpl[K] Tcntr[K] Signal RefSignal
 0.00000    5.47     2.97   3.26710   2.13964
 0.05000    5.44     2.94   3.27380   2.13995
 0.10000    5.41     2.94   3.26990   2.14264
 0.15000    5.39     2.95   3.27060   2.14294
 0.20000    5.37     2.94   3.27080   2.14286
 0.25000    5.35     2.96   3.27040   2.14255
 0.30000    5.34     2.95   3.27270   2.14182
 0.35000    5.32     2.93   3.27140   2.14304
 0.40000    5.30     2.92   3.27070   2.14289
 0.45000    5.29     2.92   3.27080   2.14505
 0.50000    5.27     2.92   3.26890   2.14424
 0.55000    5.26     2.93   3.26870   2.14439
 0.60000    5.24     2.91   3.26690   2.14351
 0.65000    5.23     2.90   3.26870   2.14462
 0.70000    5.21     2.91   3.26760   2.14254
 0.75000    5.20     2.90   3.26590   2.14441
 0.80000    5.18     2.90   3.26450   2.14209
 0.85000    5.16     2.88   3.26450   2.14277
 0.90000    5.13     2.88   3.26410   2.14396
 0.95000    5.11     2.88   3.25930   2.14202
 1.00000    5.10     2.88   3.26000   2.14378
 1.05000    5.07     2.86   3.25540   2.14461
 1.10000    5.04     2.86   3.25380   2.14294
 1.15000    5.02     2.87   3.25060   2.14566
 1.20000    5.00     2.85   3.24910   2.14389
 1.25000    4.98     2.86   3.24550   2.14462
 1.30000    4.96     2.85   3.24180   2.14297
 1.35000    4.94     2.86   3.23760   2.14298
 1.40000    4.93     2.87   3.23100   2.14308
 1.45000    4.91     2.85   3.22340   2.14194
 1.50000    4.89     2.86   3.21660   2.14269
 1.55000    4.87     2.86   3.20710   2.14246
 1.60000    4.86     2.87   3.19750   2.14350
 1.65000    4.85     2.88   3.18660   2.14475
 1.70000    4.84     2.88   3.17330   2.14397
 1.75000    4.83     2.87   3.15530   2.14270
 1.80000    4.82     2.88   3.13330   2.14518
 1.85000    4.81     2.89   3.11740   2.14278
 1.90000    4.81     2.90   3.10930   2.14333
 1.95000    4.81     2.89   3.11830   2.14599
 2.00000    4.81     2.90   3.13190   2.14582
 2.05000    4.81     2.90   3.14860   2.14529
 2.10000    4.81     2.91   3.16570   2.14473
 2.15000    4.82     2.93   3.18360   2.14488
 2.20000    4.82     2.92   3.20050   2.14491
 2.25000    4.82     2.93   3.21030   2.14629
 2.30000    4.83     2.93   3.22060   2.14549
 2.35000    4.83     2.94   3.22750   2.14608
 2.40000    4.84     2.95   3.23180   2.14486
 2.45000    4.84     2.95   3.23800   2.14574
 2.50000    4.85     2.96   3.24510   2.14571
 2.55000    4.85     2.96   3.24840   2.14569
 2.60000    4.86     2.97   3.25330   2.14403
 2.65000    4.86     2.98   3.25720   2.14383
 2.70000    4.87     2.98   3.25940   2.14387
 2.75000    4.88     2.97   3.26420   2.14592
 2.80000    4.88     2.98   3.26500   2.14567
 2.85000    4.89     2.98   3.26770   2.14751
 2.90000    4.90     2.99   3.26950   2.14606
 2.95000    4.90     3.00   3.27260   2.14685
 3.00000    4.91     2.99   3.27530   2.14628
 3.05000    4.91     3.00   3.27660   2.14858
 3.10000    4.92     2.99   3.27690   2.14690
 3.15000    4.92     2.99   3.27760   2.14612
 3.20000    4.93     3.01   3.27900   2.14590
 3.25000    4.93     3.00   3.28350   2.14634
 3.30000    4.94     3.00   3.28430   2.14586
 3.35000    4.94     2.99   3.28370   2.14500
 3.40000    4.94     3.00   3.28300   2.14456
 3.45000    4.94     2.99   3.28650   2.14515
 3.50000    4.94     3.01   3.28420   2.14463
 3.55000    0.00     3.02   3.28560   2.14378
 3.60000    4.95     0.00   3.28680   2.14573
 3.65000    4.95     3.01   3.28610   2.14469
 3.70000    4.95     3.01   3.28840   2.14377
 3.75000    4.96     3.02   3.28880   2.14513
 3.80000    4.97     3.02   3.28960   2.14799
 3.85000    4.97     3.02   3.29100   2.14716
 3.90000    4.99     3.03   3.29040   2.14655
 3.95000    5.00     3.03   3.28950   2.14852
 4.00000    5.01     3.04   3.29280   2.14686
 4.05000    5.04     3.04   3.29130   2.14797
 4.10000    5.06     3.04   3.29200   2.14931
 4.15000    5.07     3.04   3.29270   2.14847
 4.20000    5.08     3.04   3.29360   2.14912
 4.25000    5.09     3.03   3.29190   2.14869
 4.30000    5.11     3.04   3.27120   2.14919
 4.35000    5.12     3.04   3.27020   2.15154
 4.40000    5.13     3.04   3.26410   2.15076
 4.45000    5.15     3.05   3.26160   2.14863
 4.50000    5.17     3.04   3.25900   2.14813
 4.55000    5.18     3.02   3.25890   2.14768
 4.60000    5.20     3.04   3.25700   2.14564
 4.65000    5.21     3.04   3.25620   2.14601
 4.70000    5.22     3.03   3.25570   2.14674
 4.75000    5.23     3.03   3.25640   2.14487
 4.80000    5.24     3.03   3.25870   2.14650
 4.85000    5.25     3.04   3.25720   2.14549
 4.90000    5.26     3.04   3.25910   2.14576
 4.95000    5.27     3.03   3.25960   2.14640
 5.00000    5.28     3.03   3.26100   2.14571
