 Field[T] Tsmpl[K] Tcntr[K] Signal RefSignal
 5.00000    5.80     3.02   3.20850   2.12738
 4.95000    5.81     3.03   3.20790   2.12880
 4.90000    5.83     3.02   3.20980   2.12908
 4.85000    5.84     3.01   3.20700   2.12893
 4.80000    5.84     3.00   3.20690   2.13095
 4.75000    5.84     3.01   3.20680   2.13036
 4.70000    5.85     3.02   3.20710   2.13120
 4.65000    5.85     3.01   3.20710   2.13219
 4.60000    5.86     3.02   3.21060   2.13272
 4.55000    5.86     3.03   3.20980   2.13240
 4.50000    5.87     3.02   3.21110   2.13191
 4.45000    5.87     3.01   3.21180   2.13271
 4.40000    5.88     3.01   3.21650   2.13213
 4.35000    5.89     3.01   3.21250   2.13102
 4.30000    5.89     3.02   3.21200   2.13146
 4.25000    5.90     3.04   3.21530   2.13323
 4.20000    5.91     3.02   3.21390   2.13197
 4.15000    5.91     3.01   3.21490   2.13166
 4.10000    5.91     3.01   3.21750   2.13360
 4.05000    5.92     3.00   3.21720   2.13463
 4.00000    5.93     3.01   3.21780   2.13374
 3.95000    5.93     3.03   3.21620   2.13560
 3.90000    5.94     3.02   3.21840   2.13469
 3.85000    5.94     3.01   3.21440   2.13432
 3.80000    5.95     3.01   3.21600   2.13561
 3.75000    5.95     3.00   3.21610   2.13544
 3.70000    5.96     3.02   3.21460   2.13450
 3.65000    5.96     3.00   3.21580   2.13509
 3.60000    5.97     3.02   3.21670   2.13471
 3.55000    5.97     3.01   3.21700   2.13520
 3.50000    5.98     3.01   3.21750   2.13530
 3.45000    5.98     3.01   3.21470   2.13432
 3.40000    5.99     3.00   3.21270   2.13420
 3.35000    5.99     3.02   3.21170   2.13564
 3.30000    6.00     3.02   3.21340   2.13646
 3.25000    6.01     3.01   3.20980   2.13411
 3.20000    6.01     3.00   3.21190   2.13627
 3.15000    6.01     3.00   3.21140   2.13665
 3.10000    6.01     3.00   3.21180   2.13563
 3.05000    6.02     3.01   3.20970   2.13589
 3.00000    6.02     3.00   3.20890   2.13757
 2.95000    6.02     3.02   3.20480   2.13569
 2.90000    6.03     3.01   3.20260   2.13662
 2.85000    6.03     3.00   3.20770   2.13542
 2.80000    6.03     3.01   3.20360   2.13581
 2.75000    6.03     3.00   3.20160   2.13668
 2.70000    6.03     3.01   3.20050   2.13653
 2.65000    6.03     3.00   3.19690   2.13765
 2.60000    6.03     3.00   3.19210   2.13524
 2.55000    6.03     3.01   3.19110   2.13671
 2.50000    6.03     3.02   3.18880   2.13598
 2.45000    6.04     3.00   3.18270   2.13630
 2.40000    6.04     3.01   3.17710   2.13629
 2.35000    6.04     3.00   3.17280   2.13647
 2.30000    6.04     3.01   3.16310   2.13664
 2.25000    6.03     3.01   3.15770   2.13634
 2.20000    6.03     3.01   3.14480   2.13589
 2.15000    6.03     3.01   3.13010   2.13673
 2.10000    6.03     2.99   3.11400   2.13622
 2.05000    6.02     3.01   3.09770   2.13799
 2.00000    6.02     3.00   3.08400   2.13860
 1.95000    6.01     3.01   3.07140   2.13893
 1.90000    6.01     3.02   3.06860   2.13958
 1.85000    6.01     3.01   3.07350   2.13905
 1.80000    6.01     3.00   3.08850   2.13885
 1.75000    6.00     2.99   3.10800   2.13735
 1.70000    5.99     3.00   3.12250   2.13888
 1.65000    5.99     2.99   3.13870   2.13715
 1.60000    5.98     3.00   3.14930   2.13866
 1.55000    5.97     3.01   3.15980   2.13751
 1.50000    5.97     3.01   3.16970   2.13822
 1.45000    5.96     2.99   3.17780   2.14028
 1.40000    5.95     3.00   3.18490   2.13859
 1.35000    5.94     2.99   3.18860   2.13951
 1.30000    5.93     2.99   3.19450   2.14062
 1.25000    5.91     3.01   3.19730   2.13993
 1.20000    5.90     3.00   3.20050   2.13950
 1.15000    5.89     2.99   3.20660   2.14029
 1.10000    5.88     3.00   3.20740   2.14043
 1.05000    5.87     2.98   3.20940   2.14184
 1.00000    5.85     2.99   3.21160   2.14063
 0.95000    5.84     3.00   3.21510   2.14067
 0.90000    5.83     2.99   3.21540   2.14339
 0.85000    5.83     2.99   3.21820   2.14157
 0.80000    5.82     3.00   3.22060   2.14068
 0.75000    5.81     2.99   3.22320   2.14162
 0.70000    5.80     3.00   3.21930   2.13814
 0.65000    5.79     3.01   3.21860   2.13867
 0.60000    5.79     3.00   3.22010   2.13958
 0.55000    5.78     2.99   3.22310   2.13780
 0.50000    5.77     2.99   3.22500   2.13981
 0.45000    5.77     2.99   3.22370   2.13705
 0.40000    5.76     2.99   3.22320   2.13746
 0.35000    5.76     2.99   3.22330   2.13795
 0.30000    5.76     3.01   3.22380   2.13806
 0.25000    5.76     3.01   3.22550   2.13870
 0.20000    5.76     3.00   3.22360   2.13730
 0.15000    5.76     3.00   3.22340   2.13847
 0.10000    5.75     2.98   3.22470   2.13785
 0.05000    5.75     2.99   3.22690   2.13957
-0.00000    5.75     2.99   3.22680   2.13940
